LabVIEW Measurement	
Writer_Version	2
Reader_Version	2
Separator	Tab
Decimal_Separator	.
Multi_Headings	Yes
X_Columns	One
Time_Pref	Absolute
Operator	W-Tunnel
Date	2024/05/16
Time	10:21:34.3050940812499029559
***End_of_Header***	
	
Channels	1	
Samples	10000	
Date	2024/05/16	
Time	10:23:33.9326016812495780362	
Y_Unit_Label	Volts	
X_Dimension	Time	
X0	0.0000000000000000E+0	
Delta_X	0.000488	
***End_of_Header***		
X_Value	Voltage	Comment
0.000000	1.870655
0.000488	1.870426
0.000977	1.870467
0.001465	1.870659
0.001953	1.870650
0.002441	1.870337
0.002930	1.870562
0.003418	1.870450
0.003906	1.870595
0.004395	1.870780
0.004883	1.870821
0.005371	1.870669
0.005859	1.870810
0.006348	1.870590
0.006836	1.870668
0.007324	1.870710
0.007812	1.871026
0.008301	1.871169
0.008789	1.870991
0.009277	1.871023
0.009766	1.870940
0.010254	1.871104
0.010742	1.871215
0.011230	1.871192
0.011719	1.871174
0.012207	1.871057
0.012695	1.871053
0.013184	1.871143
0.013672	1.871224
0.014160	1.871117
0.014648	1.871023
0.015137	1.870962
0.015625	1.870808
0.016113	1.871120
0.016602	1.870901
0.017090	1.870904
0.017578	1.871007
0.018066	1.871109
0.018555	1.871240
0.019043	1.871149
0.019531	1.871176
0.020020	1.871053
0.020508	1.871113
0.020996	1.871402
0.021484	1.871326
0.021973	1.871058
0.022461	1.870897
0.022949	1.870918
0.023437	1.870971
0.023926	1.871068
0.024414	1.870989
0.024902	1.871043
0.025391	1.870870
0.025879	1.870769
0.026367	1.870591
0.026855	1.870845
0.027344	1.871061
0.027832	1.870899
0.028320	1.870813
0.028809	1.870861
0.029297	1.870964
0.029785	1.870798
0.030273	1.870843
0.030762	1.870746
0.031250	1.870952
0.031738	1.870673
0.032227	1.870824
0.032715	1.870565
0.033203	1.870436
0.033691	1.870699
0.034180	1.870605
0.034668	1.870310
0.035156	1.870504
0.035645	1.870561
0.036133	1.870539
0.036621	1.870616
0.037109	1.870536
0.037598	1.870456
0.038086	1.870384
0.038574	1.870678
0.039062	1.870695
0.039551	1.870650
0.040039	1.870819
0.040527	1.870673
0.041016	1.870758
0.041504	1.870908
0.041992	1.870879
0.042480	1.870787
0.042969	1.870733
0.043457	1.870607
0.043945	1.870675
0.044434	1.870772
0.044922	1.870617
0.045410	1.870561
0.045898	1.870478
0.046387	1.870581
0.046875	1.870624
0.047363	1.870686
0.047852	1.870508
0.048340	1.870680
0.048828	1.870631
0.049316	1.870803
0.049805	1.870739
0.050293	1.870769
0.050781	1.870692
0.051270	1.870652
0.051758	1.870707
0.052246	1.870533
0.052734	1.871001
0.053223	1.871126
0.053711	1.870471
0.054199	1.870719
0.054687	1.870530
0.055176	1.870670
0.055664	1.870700
0.056152	1.870736
0.056641	1.870581
0.057129	1.870586
0.057617	1.870695
0.058105	1.870606
0.058594	1.870285
0.059082	1.870753
0.059570	1.870637
0.060059	1.870483
0.060547	1.870370
0.061035	1.870594
0.061523	1.870460
0.062012	1.870720
0.062500	1.870470
0.062988	1.870188
0.063477	1.870336
0.063965	1.870391
0.064453	1.870229
0.064941	1.870257
0.065430	1.870120
0.065918	1.870248
0.066406	1.870054
0.066895	1.870143
0.067383	1.870048
0.067871	1.870016
0.068359	1.869996
0.068848	1.870069
0.069336	1.870384
0.069824	1.870394
0.070312	1.870331
0.070801	1.870198
0.071289	1.870311
0.071777	1.870305
0.072266	1.870212
0.072754	1.870096
0.073242	1.869918
0.073730	1.870289
0.074219	1.870220
0.074707	1.870010
0.075195	1.869998
0.075684	1.870138
0.076172	1.870147
0.076660	1.870198
0.077148	1.870268
0.077637	1.870178
0.078125	1.870187
0.078613	1.870301
0.079102	1.870207
0.079590	1.870229
0.080078	1.870421
0.080566	1.870187
0.081055	1.870510
0.081543	1.870540
0.082031	1.870589
0.082520	1.870493
0.083008	1.870472
0.083496	1.870289
0.083984	1.870421
0.084473	1.870538
0.084961	1.870467
0.085449	1.870523
0.085937	1.870464
0.086426	1.870534
0.086914	1.870591
0.087402	1.870616
0.087891	1.870497
0.088379	1.870471
0.088867	1.870478
0.089355	1.870611
0.089844	1.870653
0.090332	1.870462
0.090820	1.870531
0.091309	1.870563
0.091797	1.870664
0.092285	1.870542
0.092773	1.870963
0.093262	1.870730
0.093750	1.870904
0.094238	1.870900
0.094727	1.870825
0.095215	1.870672
0.095703	1.870581
0.096191	1.870858
0.096680	1.871079
0.097168	1.870973
0.097656	1.870807
0.098145	1.871137
0.098633	1.871154
0.099121	1.871237
0.099609	1.871397
0.100098	1.871399
0.100586	1.871365
0.101074	1.870905
0.101562	1.871207
0.102051	1.871259
0.102539	1.871275
0.103027	1.870960
0.103516	1.871298
0.104004	1.871293
0.104492	1.871453
0.104980	1.871405
0.105469	1.871176
0.105957	1.871239
0.106445	1.871212
0.106934	1.871414
0.107422	1.871368
0.107910	1.871329
0.108398	1.871513
0.108887	1.871423
0.109375	1.871297
0.109863	1.871438
0.110352	1.871830
0.110840	1.871405
0.111328	1.871306
0.111816	1.871574
0.112305	1.871572
0.112793	1.871610
0.113281	1.871618
0.113770	1.871455
0.114258	1.871533
0.114746	1.871480
0.115234	1.871605
0.115723	1.871085
0.116211	1.871342
0.116699	1.871541
0.117187	1.871467
0.117676	1.871282
0.118164	1.871611
0.118652	1.871406
0.119141	1.871525
0.119629	1.871607
0.120117	1.871380
0.120605	1.871556
0.121094	1.871478
0.121582	1.871550
0.122070	1.871394
0.122559	1.871397
0.123047	1.871387
0.123535	1.871308
0.124023	1.871284
0.124512	1.871492
0.125000	1.871414
0.125488	1.871243
0.125977	1.871214
0.126465	1.871102
0.126953	1.871322
0.127441	1.871367
0.127930	1.871217
0.128418	1.871076
0.128906	1.871193
0.129395	1.871279
0.129883	1.871292
0.130371	1.871417
0.130859	1.871346
0.131348	1.871325
0.131836	1.871386
0.132324	1.871460
0.132812	1.871444
0.133301	1.871435
0.133789	1.871403
0.134277	1.871447
0.134766	1.871107
0.135254	1.871396
0.135742	1.871365
0.136230	1.871357
0.136719	1.871198
0.137207	1.871272
0.137695	1.871267
0.138184	1.871342
0.138672	1.871342
0.139160	1.871331
0.139648	1.871234
0.140137	1.871392
0.140625	1.871454
0.141113	1.871364
0.141602	1.871344
0.142090	1.871502
0.142578	1.871516
0.143066	1.871489
0.143555	1.871398
0.144043	1.871353
0.144531	1.871323
0.145020	1.871793
0.145508	1.871401
0.145996	1.871181
0.146484	1.871407
0.146973	1.871409
0.147461	1.871334
0.147949	1.871320
0.148437	1.871304
0.148926	1.871315
0.149414	1.871061
0.149902	1.871248
0.150391	1.871198
0.150879	1.871171
0.151367	1.871226
0.151855	1.871223
0.152344	1.871096
0.152832	1.871377
0.153320	1.871365
0.153809	1.871138
0.154297	1.871206
0.154785	1.871124
0.155273	1.871259
0.155762	1.871403
0.156250	1.871038
0.156738	1.871325
0.157227	1.871246
0.157715	1.871142
0.158203	1.871005
0.158691	1.871075
0.159180	1.871030
0.159668	1.871007
0.160156	1.870963
0.160645	1.870968
0.161133	1.871058
0.161621	1.871100
0.162109	1.870971
0.162598	1.870980
0.163086	1.870874
0.163574	1.870930
0.164062	1.870879
0.164551	1.870962
0.165039	1.870905
0.165527	1.870805
0.166016	1.870784
0.166504	1.871001
0.166992	1.870941
0.167480	1.871114
0.167969	1.870905
0.168457	1.870670
0.168945	1.870768
0.169434	1.871054
0.169922	1.870742
0.170410	1.870667
0.170898	1.870794
0.171387	1.870940
0.171875	1.870739
0.172363	1.871043
0.172852	1.870825
0.173340	1.870755
0.173828	1.870931
0.174316	1.870922
0.174805	1.870623
0.175293	1.870826
0.175781	1.870792
0.176270	1.870755
0.176758	1.870961
0.177246	1.870869
0.177734	1.870752
0.178223	1.870894
0.178711	1.871063
0.179199	1.870645
0.179687	1.870570
0.180176	1.870839
0.180664	1.870835
0.181152	1.870724
0.181641	1.870684
0.182129	1.870871
0.182617	1.870776
0.183105	1.871052
0.183594	1.870891
0.184082	1.870714
0.184570	1.870785
0.185059	1.870698
0.185547	1.870878
0.186035	1.870976
0.186523	1.870810
0.187012	1.870931
0.187500	1.870745
0.187988	1.870970
0.188477	1.871076
0.188965	1.871119
0.189453	1.870913
0.189941	1.871095
0.190430	1.870990
0.190918	1.871232
0.191406	1.871289
0.191895	1.871065
0.192383	1.871004
0.192871	1.871135
0.193359	1.870995
0.193848	1.870961
0.194336	1.870816
0.194824	1.871062
0.195312	1.871001
0.195801	1.870700
0.196289	1.870747
0.196777	1.870664
0.197266	1.870769
0.197754	1.871129
0.198242	1.870775
0.198730	1.870647
0.199219	1.870866
0.199707	1.870958
0.200195	1.870853
0.200684	1.870877
0.201172	1.871058
0.201660	1.870911
0.202148	1.870775
0.202637	1.870939
0.203125	1.871157
0.203613	1.870987
0.204102	1.870824
0.204590	1.870910
0.205078	1.870402
0.205566	1.870808
0.206055	1.870772
0.206543	1.870645
0.207031	1.870464
0.207520	1.870618
0.208008	1.870502
0.208496	1.870747
0.208984	1.870725
0.209473	1.870515
0.209961	1.870664
0.210449	1.870699
0.210937	1.870691
0.211426	1.870736
0.211914	1.870754
0.212402	1.870803
0.212891	1.870807
0.213379	1.870655
0.213867	1.871005
0.214355	1.870916
0.214844	1.870457
0.215332	1.870842
0.215820	1.870985
0.216309	1.870953
0.216797	1.870907
0.217285	1.870714
0.217773	1.870754
0.218262	1.870714
0.218750	1.870767
0.219238	1.870679
0.219727	1.870442
0.220215	1.870742
0.220703	1.870754
0.221191	1.870647
0.221680	1.870714
0.222168	1.870897
0.222656	1.870885
0.223145	1.870907
0.223633	1.870975
0.224121	1.871035
0.224609	1.870697
0.225098	1.870630
0.225586	1.870829
0.226074	1.870907
0.226562	1.870763
0.227051	1.870836
0.227539	1.870713
0.228027	1.870634
0.228516	1.870869
0.229004	1.870769
0.229492	1.870607
0.229980	1.870616
0.230469	1.870904
0.230957	1.870884
0.231445	1.870917
0.231934	1.870782
0.232422	1.870903
0.232910	1.870572
0.233398	1.870606
0.233887	1.871061
0.234375	1.871052
0.234863	1.870631
0.235352	1.870789
0.235840	1.870797
0.236328	1.870825
0.236816	1.870893
0.237305	1.870756
0.237793	1.870664
0.238281	1.870777
0.238770	1.870974
0.239258	1.870562
0.239746	1.870308
0.240234	1.870448
0.240723	1.870415
0.241211	1.870922
0.241699	1.870875
0.242187	1.870756
0.242676	1.870672
0.243164	1.870643
0.243652	1.870839
0.244141	1.870624
0.244629	1.870668
0.245117	1.870396
0.245605	1.870816
0.246094	1.870761
0.246582	1.870631
0.247070	1.870459
0.247559	1.870682
0.248047	1.870816
0.248535	1.870677
0.249023	1.870716
0.249512	1.870627
0.250000	1.870615
0.250488	1.870453
0.250977	1.870533
0.251465	1.870715
0.251953	1.870649
0.252441	1.870701
0.252930	1.870611
0.253418	1.870474
0.253906	1.870601
0.254395	1.870581
0.254883	1.870476
0.255371	1.870481
0.255859	1.870492
0.256348	1.870551
0.256836	1.870642
0.257324	1.870550
0.257812	1.870537
0.258301	1.870592
0.258789	1.870537
0.259277	1.870724
0.259766	1.870553
0.260254	1.870574
0.260742	1.870513
0.261230	1.870495
0.261719	1.870431
0.262207	1.870453
0.262695	1.870394
0.263184	1.870490
0.263672	1.870439
0.264160	1.870425
0.264648	1.870327
0.265137	1.870407
0.265625	1.870365
0.266113	1.870552
0.266602	1.870432
0.267090	1.870419
0.267578	1.870468
0.268066	1.870385
0.268555	1.870533
0.269043	1.870688
0.269531	1.870172
0.270020	1.870287
0.270508	1.870461
0.270996	1.870520
0.271484	1.870353
0.271973	1.870551
0.272461	1.870528
0.272949	1.870494
0.273437	1.870569
0.273926	1.870850
0.274414	1.870763
0.274902	1.870604
0.275391	1.870565
0.275879	1.870602
0.276367	1.870395
0.276855	1.870393
0.277344	1.870494
0.277832	1.870758
0.278320	1.870636
0.278809	1.870547
0.279297	1.870588
0.279785	1.870447
0.280273	1.870580
0.280762	1.870660
0.281250	1.870560
0.281738	1.870622
0.282227	1.870480
0.282715	1.870533
0.283203	1.870468
0.283691	1.870381
0.284180	1.870269
0.284668	1.870398
0.285156	1.870449
0.285645	1.870497
0.286133	1.870592
0.286621	1.870563
0.287109	1.870049
0.287598	1.870445
0.288086	1.870675
0.288574	1.870551
0.289062	1.870434
0.289551	1.870344
0.290039	1.870317
0.290527	1.870600
0.291016	1.870725
0.291504	1.870647
0.291992	1.870518
0.292480	1.870470
0.292969	1.870504
0.293457	1.870572
0.293945	1.870446
0.294434	1.870397
0.294922	1.870462
0.295410	1.870523
0.295898	1.870525
0.296387	1.870407
0.296875	1.870346
0.297363	1.870223
0.297852	1.870199
0.298340	1.870367
0.298828	1.870299
0.299316	1.870171
0.299805	1.869946
0.300293	1.869898
0.300781	1.869717
0.301270	1.869843
0.301758	1.870157
0.302246	1.869976
0.302734	1.870006
0.303223	1.869841
0.303711	1.869960
0.304199	1.870024
0.304687	1.869981
0.305176	1.870103
0.305664	1.870015
0.306152	1.869885
0.306641	1.869971
0.307129	1.869945
0.307617	1.869962
0.308105	1.869852
0.308594	1.869892
0.309082	1.869995
0.309570	1.870028
0.310059	1.870062
0.310547	1.869966
0.311035	1.869576
0.311523	1.869983
0.312012	1.870131
0.312500	1.869944
0.312988	1.869898
0.313477	1.869864
0.313965	1.869887
0.314453	1.870115
0.314941	1.870144
0.315430	1.869985
0.315918	1.869894
0.316406	1.869937
0.316895	1.870161
0.317383	1.870298
0.317871	1.870077
0.318359	1.870159
0.318848	1.870138
0.319336	1.870183
0.319824	1.870378
0.320312	1.870414
0.320801	1.870046
0.321289	1.870211
0.321777	1.870422
0.322266	1.870173
0.322754	1.870453
0.323242	1.870485
0.323730	1.870321
0.324219	1.870384
0.324707	1.870222
0.325195	1.870454
0.325684	1.870385
0.326172	1.870368
0.326660	1.870525
0.327148	1.870301
0.327637	1.870296
0.328125	1.870249
0.328613	1.870451
0.329102	1.870477
0.329590	1.870400
0.330078	1.870329
0.330566	1.870295
0.331055	1.870237
0.331543	1.870315
0.332031	1.870308
0.332520	1.870172
0.333008	1.870101
0.333496	1.870380
0.333984	1.870461
0.334473	1.870362
0.334961	1.870448
0.335449	1.870334
0.335937	1.870298
0.336426	1.870723
0.336914	1.870680
0.337402	1.870509
0.337891	1.870553
0.338379	1.870318
0.338867	1.870332
0.339355	1.870322
0.339844	1.870470
0.340332	1.870411
0.340820	1.870489
0.341309	1.870517
0.341797	1.870543
0.342285	1.870523
0.342773	1.870490
0.343262	1.870376
0.343750	1.870500
0.344238	1.870591
0.344727	1.870526
0.345215	1.870464
0.345703	1.870104
0.346191	1.870206
0.346680	1.870273
0.347168	1.870573
0.347656	1.870686
0.348145	1.870572
0.348633	1.870731
0.349121	1.870537
0.349609	1.870617
0.350098	1.870644
0.350586	1.870721
0.351074	1.870728
0.351562	1.870783
0.352051	1.870742
0.352539	1.870886
0.353027	1.870752
0.353516	1.870656
0.354004	1.870663
0.354492	1.870877
0.354980	1.871174
0.355469	1.871018
0.355957	1.871032
0.356445	1.870931
0.356934	1.871035
0.357422	1.871049
0.357910	1.871001
0.358398	1.871027
0.358887	1.870834
0.359375	1.871002
0.359863	1.871118
0.360352	1.870891
0.360840	1.870960
0.361328	1.871080
0.361816	1.870979
0.362305	1.871066
0.362793	1.870942
0.363281	1.871157
0.363770	1.871096
0.364258	1.871179
0.364746	1.871062
0.365234	1.871225
0.365723	1.871125
0.366211	1.871262
0.366699	1.871426
0.367187	1.871355
0.367676	1.871421
0.368164	1.871373
0.368652	1.871448
0.369141	1.871316
0.369629	1.871251
0.370117	1.871210
0.370605	1.871297
0.371094	1.871311
0.371582	1.871301
0.372070	1.871236
0.372559	1.871038
0.373047	1.871151
0.373535	1.871207
0.374023	1.871276
0.374512	1.871146
0.375000	1.870835
0.375488	1.871051
0.375977	1.871272
0.376465	1.871083
0.376953	1.870974
0.377441	1.870928
0.377930	1.870821
0.378418	1.871007
0.378906	1.871251
0.379395	1.871109
0.379883	1.870974
0.380371	1.870932
0.380859	1.870952
0.381348	1.870897
0.381836	1.870902
0.382324	1.870839
0.382812	1.870820
0.383301	1.871054
0.383789	1.870894
0.384277	1.871009
0.384766	1.870756
0.385254	1.870828
0.385742	1.870927
0.386230	1.871201
0.386719	1.870933
0.387207	1.870931
0.387695	1.870911
0.388184	1.870783
0.388672	1.870676
0.389160	1.870721
0.389648	1.870726
0.390137	1.870619
0.390625	1.870794
0.391113	1.870602
0.391602	1.870778
0.392090	1.870617
0.392578	1.870656
0.393066	1.870788
0.393555	1.870841
0.394043	1.870624
0.394531	1.870542
0.395020	1.870783
0.395508	1.870539
0.395996	1.870421
0.396484	1.870497
0.396973	1.870579
0.397461	1.870424
0.397949	1.870461
0.398437	1.870527
0.398926	1.870546
0.399414	1.870273
0.399902	1.870515
0.400391	1.870148
0.400879	1.870279
0.401367	1.870406
0.401855	1.870364
0.402344	1.870179
0.402832	1.870273
0.403320	1.870268
0.403809	1.870237
0.404297	1.870655
0.404785	1.870413
0.405273	1.870428
0.405762	1.870509
0.406250	1.870598
0.406738	1.870389
0.407227	1.870251
0.407715	1.870537
0.408203	1.870500
0.408691	1.870423
0.409180	1.870357
0.409668	1.870597
0.410156	1.870456
0.410645	1.870758
0.411133	1.870722
0.411621	1.870799
0.412109	1.870776
0.412598	1.870517
0.413086	1.870835
0.413574	1.870853
0.414062	1.870927
0.414551	1.870966
0.415039	1.870773
0.415527	1.870911
0.416016	1.871032
0.416504	1.871163
0.416992	1.870897
0.417480	1.870994
0.417969	1.870915
0.418457	1.871052
0.418945	1.870945
0.419434	1.870847
0.419922	1.870843
0.420410	1.871015
0.420898	1.870930
0.421387	1.871073
0.421875	1.870675
0.422363	1.871111
0.422852	1.871137
0.423340	1.871112
0.423828	1.871182
0.424316	1.871060
0.424805	1.870919
0.425293	1.871143
0.425781	1.871090
0.426270	1.871113
0.426758	1.870998
0.427246	1.870678
0.427734	1.870838
0.428223	1.870872
0.428711	1.871117
0.429199	1.871242
0.429687	1.870951
0.430176	1.871042
0.430664	1.870949
0.431152	1.871129
0.431641	1.871250
0.432129	1.871059
0.432617	1.871212
0.433105	1.871144
0.433594	1.871066
0.434082	1.871027
0.434570	1.870958
0.435059	1.871055
0.435547	1.871001
0.436035	1.870879
0.436523	1.870982
0.437012	1.870799
0.437500	1.871035
0.437988	1.871017
0.438477	1.871057
0.438965	1.870967
0.439453	1.871120
0.439941	1.871080
0.440430	1.871178
0.440918	1.871281
0.441406	1.871197
0.441895	1.871082
0.442383	1.871356
0.442871	1.871384
0.443359	1.871242
0.443848	1.871112
0.444336	1.871404
0.444824	1.871360
0.445312	1.871353
0.445801	1.871224
0.446289	1.871234
0.446777	1.871221
0.447266	1.871662
0.447754	1.871233
0.448242	1.871043
0.448730	1.871348
0.449219	1.871679
0.449707	1.871533
0.450195	1.871524
0.450684	1.871405
0.451172	1.871497
0.451660	1.871746
0.452148	1.871678
0.452637	1.871296
0.453125	1.871581
0.453613	1.871771
0.454102	1.871619
0.454590	1.871461
0.455078	1.871370
0.455566	1.871441
0.456055	1.871755
0.456543	1.871954
0.457031	1.871514
0.457520	1.871530
0.458008	1.871560
0.458496	1.871630
0.458984	1.871627
0.459473	1.871711
0.459961	1.871530
0.460449	1.871718
0.460937	1.871907
0.461426	1.871793
0.461914	1.871874
0.462402	1.871719
0.462891	1.871678
0.463379	1.871965
0.463867	1.872061
0.464355	1.871786
0.464844	1.871660
0.465332	1.871515
0.465820	1.871566
0.466309	1.871798
0.466797	1.871709
0.467285	1.871414
0.467773	1.871367
0.468262	1.871636
0.468750	1.871524
0.469238	1.871560
0.469727	1.871453
0.470215	1.871237
0.470703	1.871594
0.471191	1.871776
0.471680	1.871624
0.472168	1.871598
0.472656	1.871350
0.473145	1.871365
0.473633	1.871344
0.474121	1.871478
0.474609	1.871261
0.475098	1.871364
0.475586	1.871456
0.476074	1.871326
0.476562	1.871433
0.477051	1.871253
0.477539	1.871132
0.478027	1.871226
0.478516	1.871144
0.479004	1.871123
0.479492	1.871267
0.479980	1.871156
0.480469	1.871261
0.480957	1.871087
0.481445	1.871394
0.481934	1.871412
0.482422	1.871286
0.482910	1.871349
0.483398	1.871428
0.483887	1.871417
0.484375	1.871494
0.484863	1.871331
0.485352	1.871281
0.485840	1.871181
0.486328	1.871426
0.486816	1.871307
0.487305	1.871230
0.487793	1.871287
0.488281	1.871259
0.488770	1.871144
0.489258	1.871354
0.489746	1.871385
0.490234	1.871226
0.490723	1.871278
0.491211	1.871463
0.491699	1.871440
0.492187	1.871353
0.492676	1.871209
0.493164	1.870894
0.493652	1.871398
0.494141	1.871257
0.494629	1.871248
0.495117	1.871228
0.495605	1.870960
0.496094	1.871131
0.496582	1.871049
0.497070	1.871114
0.497559	1.871077
0.498047	1.871218
0.498535	1.871426
0.499023	1.871303
0.499512	1.871308
0.500000	1.871197
0.500488	1.871056
0.500977	1.871118
0.501465	1.871070
0.501953	1.871580
0.502441	1.871474
0.502930	1.870943
0.503418	1.871189
0.503906	1.871426
0.504395	1.871225
0.504883	1.871374
0.505371	1.871226
0.505859	1.871231
0.506348	1.871029
0.506836	1.871218
0.507324	1.871071
0.507812	1.870915
0.508301	1.871101
0.508789	1.871043
0.509277	1.871365
0.509766	1.871353
0.510254	1.871236
0.510742	1.871153
0.511230	1.871231
0.511719	1.871340
0.512207	1.871331
0.512695	1.871275
0.513184	1.870937
0.513672	1.871262
0.514160	1.871210
0.514648	1.871140
0.515137	1.871048
0.515625	1.871332
0.516113	1.871248
0.516602	1.871597
0.517090	1.871350
0.517578	1.871180
0.518066	1.871279
0.518555	1.871448
0.519043	1.871320
0.519531	1.871244
0.520020	1.871325
0.520508	1.871306
0.520996	1.871486
0.521484	1.871484
0.521973	1.871152
0.522461	1.870954
0.522949	1.871406
0.523437	1.871221
0.523926	1.870957
0.524414	1.871067
0.524902	1.871076
0.525391	1.871193
0.525879	1.871339
0.526367	1.871164
0.526855	1.871090
0.527344	1.871126
0.527832	1.871329
0.528320	1.871343
0.528809	1.871369
0.529297	1.871108
0.529785	1.871280
0.530273	1.871228
0.530762	1.871357
0.531250	1.871300
0.531738	1.871269
0.532227	1.871195
0.532715	1.871400
0.533203	1.871423
0.533691	1.871380
0.534180	1.871391
0.534668	1.871251
0.535156	1.871273
0.535645	1.871512
0.536133	1.871220
0.536621	1.871280
0.537109	1.871295
0.537598	1.871070
0.538086	1.870976
0.538574	1.871203
0.539062	1.871054
0.539551	1.871081
0.540039	1.870988
0.540527	1.871129
0.541016	1.871198
0.541504	1.871257
0.541992	1.871298
0.542480	1.871068
0.542969	1.871556
0.543457	1.871549
0.543945	1.871337
0.544434	1.871088
0.544922	1.871519
0.545410	1.871361
0.545898	1.871810
0.546387	1.871389
0.546875	1.871221
0.547363	1.871344
0.547852	1.871515
0.548340	1.871256
0.548828	1.871242
0.549316	1.871243
0.549805	1.871314
0.550293	1.871181
0.550781	1.871154
0.551270	1.871406
0.551758	1.871182
0.552246	1.871198
0.552734	1.871288
0.553223	1.871356
0.553711	1.871372
0.554199	1.871511
0.554687	1.871466
0.555176	1.871398
0.555664	1.871455
0.556152	1.871275
0.556641	1.871777
0.557129	1.871855
0.557617	1.871644
0.558105	1.871580
0.558594	1.871415
0.559082	1.871550
0.559570	1.871453
0.560059	1.871410
0.560547	1.871264
0.561035	1.871525
0.561523	1.871699
0.562012	1.871492
0.562500	1.871475
0.562988	1.871334
0.563477	1.871403
0.563965	1.871690
0.564453	1.871501
0.564941	1.871255
0.565430	1.871373
0.565918	1.871345
0.566406	1.871306
0.566895	1.871323
0.567383	1.871297
0.567871	1.871063
0.568359	1.871082
0.568848	1.871232
0.569336	1.870961
0.569824	1.870749
0.570312	1.870836
0.570801	1.870976
0.571289	1.870842
0.571777	1.870708
0.572266	1.870978
0.572754	1.870822
0.573242	1.871131
0.573730	1.870947
0.574219	1.870727
0.574707	1.870712
0.575195	1.870996
0.575684	1.870895
0.576172	1.870792
0.576660	1.870788
0.577148	1.870821
0.577637	1.870863
0.578125	1.870930
0.578613	1.870753
0.579102	1.870856
0.579590	1.870825
0.580078	1.870822
0.580566	1.870803
0.581055	1.870702
0.581543	1.870854
0.582031	1.870864
0.582520	1.870990
0.583008	1.870899
0.583496	1.870760
0.583984	1.870717
0.584473	1.870771
0.584961	1.870942
0.585449	1.870782
0.585937	1.870707
0.586426	1.871075
0.586914	1.871123
0.587402	1.871220
0.587891	1.871151
0.588379	1.871326
0.588867	1.871438
0.589355	1.871401
0.589844	1.871512
0.590332	1.871385
0.590820	1.871578
0.591309	1.871328
0.591797	1.871506
0.592285	1.871467
0.592773	1.871497
0.593262	1.871443
0.593750	1.871545
0.594238	1.871315
0.594727	1.871414
0.595215	1.871492
0.595703	1.871294
0.596191	1.871160
0.596680	1.871442
0.597168	1.871534
0.597656	1.871468
0.598145	1.871461
0.598633	1.871533
0.599121	1.871439
0.599609	1.871388
0.600098	1.871411
0.600586	1.871558
0.601074	1.871477
0.601562	1.871594
0.602051	1.871398
0.602539	1.871318
0.603027	1.871489
0.603516	1.871648
0.604004	1.871270
0.604492	1.871241
0.604980	1.871114
0.605469	1.871304
0.605957	1.871285
0.606445	1.871215
0.606934	1.871207
0.607422	1.871151
0.607910	1.871593
0.608398	1.871337
0.608887	1.871131
0.609375	1.871162
0.609863	1.871223
0.610352	1.871571
0.610840	1.871505
0.611328	1.871392
0.611816	1.871397
0.612305	1.871250
0.612793	1.871373
0.613281	1.871069
0.613770	1.871308
0.614258	1.870800
0.614746	1.871027
0.615234	1.871221
0.615723	1.871125
0.616211	1.870789
0.616699	1.871130
0.617187	1.871223
0.617676	1.871018
0.618164	1.871124
0.618652	1.871211
0.619141	1.871292
0.619629	1.870864
0.620117	1.870918
0.620605	1.871207
0.621094	1.871195
0.621582	1.870977
0.622070	1.871014
0.622559	1.871024
0.623047	1.871412
0.623535	1.871683
0.624023	1.871320
0.624512	1.871237
0.625000	1.871170
0.625488	1.871385
0.625977	1.871484
0.626465	1.871461
0.626953	1.871279
0.627441	1.871295
0.627930	1.871376
0.628418	1.871159
0.628906	1.871303
0.629395	1.871220
0.629883	1.871247
0.630371	1.871430
0.630859	1.871511
0.631348	1.871621
0.631836	1.871555
0.632324	1.871642
0.632812	1.871694
0.633301	1.871802
0.633789	1.871702
0.634277	1.871676
0.634766	1.871719
0.635254	1.871342
0.635742	1.871649
0.636230	1.871768
0.636719	1.871720
0.637207	1.871414
0.637695	1.871807
0.638184	1.871597
0.638672	1.871680
0.639160	1.871687
0.639648	1.871749
0.640137	1.871754
0.640625	1.871774
0.641113	1.871490
0.641602	1.871682
0.642090	1.871508
0.642578	1.871536
0.643066	1.871360
0.643555	1.871346
0.644043	1.871205
0.644531	1.871164
0.645020	1.871249
0.645508	1.871157
0.645996	1.871060
0.646484	1.871223
0.646973	1.871195
0.647461	1.871143
0.647949	1.871445
0.648437	1.870976
0.648926	1.871374
0.649414	1.871109
0.649902	1.871309
0.650391	1.871107
0.650879	1.871255
0.651367	1.871318
0.651855	1.871209
0.652344	1.871029
0.652832	1.871119
0.653320	1.871099
0.653809	1.871073
0.654297	1.870976
0.654785	1.870947
0.655273	1.871249
0.655762	1.870982
0.656250	1.871020
0.656738	1.870719
0.657227	1.870770
0.657715	1.870958
0.658203	1.870931
0.658691	1.870916
0.659180	1.870867
0.659668	1.871170
0.660156	1.871030
0.660645	1.871123
0.661133	1.871055
0.661621	1.871040
0.662109	1.871138
0.662598	1.871048
0.663086	1.871075
0.663574	1.870880
0.664062	1.871090
0.664551	1.871129
0.665039	1.870990
0.665527	1.871062
0.666016	1.870864
0.666504	1.870974
0.666992	1.871053
0.667480	1.871089
0.667969	1.871337
0.668457	1.871030
0.668945	1.871101
0.669434	1.871046
0.669922	1.871126
0.670410	1.871080
0.670898	1.870996
0.671387	1.870942
0.671875	1.871091
0.672363	1.871089
0.672852	1.870977
0.673340	1.870937
0.673828	1.870741
0.674316	1.870897
0.674805	1.870740
0.675293	1.870797
0.675781	1.870905
0.676270	1.870680
0.676758	1.870749
0.677246	1.870803
0.677734	1.870683
0.678223	1.870645
0.678711	1.870870
0.679199	1.870843
0.679687	1.870787
0.680176	1.870768
0.680664	1.870927
0.681152	1.871044
0.681641	1.870852
0.682129	1.870861
0.682617	1.870780
0.683105	1.870965
0.683594	1.871024
0.684082	1.870854
0.684570	1.870833
0.685059	1.870911
0.685547	1.870892
0.686035	1.870922
0.686523	1.870993
0.687012	1.870760
0.687500	1.870966
0.687988	1.870838
0.688477	1.870890
0.688965	1.870694
0.689453	1.870956
0.689941	1.870882
0.690430	1.870891
0.690918	1.870828
0.691406	1.871069
0.691895	1.871037
0.692383	1.870968
0.692871	1.871146
0.693359	1.871135
0.693848	1.870991
0.694336	1.871037
0.694824	1.871029
0.695312	1.871091
0.695801	1.871069
0.696289	1.871053
0.696777	1.871006
0.697266	1.870739
0.697754	1.871258
0.698242	1.871085
0.698730	1.871052
0.699219	1.870991
0.699707	1.871091
0.700195	1.871129
0.700684	1.871294
0.701172	1.871222
0.701660	1.871162
0.702148	1.871159
0.702637	1.871173
0.703125	1.871016
0.703613	1.870907
0.704102	1.871102
0.704590	1.871232
0.705078	1.870933
0.705566	1.870906
0.706055	1.870950
0.706543	1.870929
0.707031	1.871130
0.707520	1.871273
0.708008	1.870910
0.708496	1.870883
0.708984	1.870866
0.709473	1.871064
0.709961	1.870932
0.710449	1.871021
0.710937	1.870772
0.711426	1.870822
0.711914	1.870911
0.712402	1.870883
0.712891	1.871059
0.713379	1.870863
0.713867	1.870884
0.714355	1.870841
0.714844	1.870870
0.715332	1.871198
0.715820	1.871047
0.716309	1.871088
0.716797	1.871072
0.717285	1.870920
0.717773	1.871156
0.718262	1.871389
0.718750	1.871122
0.719238	1.871032
0.719727	1.871311
0.720215	1.871390
0.720703	1.871364
0.721191	1.871401
0.721680	1.871437
0.722168	1.871414
0.722656	1.871672
0.723145	1.871588
0.723633	1.871356
0.724121	1.871563
0.724609	1.871911
0.725098	1.871618
0.725586	1.871770
0.726074	1.871549
0.726562	1.871774
0.727051	1.871983
0.727539	1.872267
0.728027	1.871682
0.728516	1.871774
0.729004	1.872070
0.729492	1.872138
0.729980	1.872002
0.730469	1.871841
0.730957	1.871794
0.731445	1.871981
0.731934	1.872072
0.732422	1.871895
0.732910	1.871555
0.733398	1.872065
0.733887	1.872032
0.734375	1.871823
0.734863	1.871779
0.735352	1.871937
0.735840	1.871960
0.736328	1.872039
0.736816	1.872069
0.737305	1.871877
0.737793	1.871671
0.738281	1.871823
0.738770	1.871985
0.739258	1.872020
0.739746	1.871838
0.740234	1.871752
0.740723	1.871907
0.741211	1.871880
0.741699	1.871811
0.742187	1.871851
0.742676	1.871844
0.743164	1.871894
0.743652	1.871852
0.744141	1.871550
0.744629	1.871583
0.745117	1.871504
0.745605	1.871829
0.746094	1.871649
0.746582	1.871734
0.747070	1.871468
0.747559	1.871612
0.748047	1.871455
0.748535	1.871508
0.749023	1.871419
0.749512	1.871265
0.750000	1.871507
0.750488	1.871593
0.750977	1.871411
0.751465	1.871373
0.751953	1.871334
0.752441	1.871378
0.752930	1.871453
0.753418	1.871386
0.753906	1.871346
0.754395	1.871259
0.754883	1.871276
0.755371	1.871233
0.755859	1.871189
0.756348	1.871261
0.756836	1.871301
0.757324	1.871159
0.757812	1.871189
0.758301	1.871401
0.758789	1.871318
0.759277	1.871101
0.759766	1.871212
0.760254	1.871301
0.760742	1.871450
0.761230	1.871318
0.761719	1.871275
0.762207	1.871222
0.762695	1.871325
0.763184	1.871195
0.763672	1.871022
0.764160	1.871129
0.764648	1.871292
0.765137	1.871114
0.765625	1.871264
0.766113	1.871089
0.766602	1.871254
0.767090	1.871293
0.767578	1.871536
0.768066	1.871236
0.768555	1.871276
0.769043	1.871121
0.769531	1.871291
0.770020	1.871297
0.770508	1.871240
0.770996	1.871106
0.771484	1.871353
0.771973	1.871384
0.772461	1.871363
0.772949	1.871323
0.773437	1.871225
0.773926	1.871483
0.774414	1.871237
0.774902	1.871003
0.775391	1.871133
0.775879	1.871093
0.776367	1.871001
0.776855	1.870836
0.777344	1.870845
0.777832	1.870905
0.778320	1.871060
0.778809	1.870810
0.779297	1.870844
0.779785	1.870712
0.780273	1.870691
0.780762	1.870896
0.781250	1.870813
0.781738	1.870829
0.782227	1.870768
0.782715	1.870816
0.783203	1.870763
0.783691	1.870890
0.784180	1.870625
0.784668	1.871104
0.785156	1.870811
0.785645	1.870549
0.786133	1.870761
0.786621	1.870738
0.787109	1.870852
0.787598	1.870793
0.788086	1.870572
0.788574	1.870505
0.789062	1.870642
0.789551	1.870583
0.790039	1.870588
0.790527	1.870441
0.791016	1.870707
0.791504	1.870553
0.791992	1.870598
0.792480	1.870617
0.792969	1.870498
0.793457	1.870702
0.793945	1.870672
0.794434	1.870286
0.794922	1.870343
0.795410	1.870559
0.795898	1.870430
0.796387	1.870645
0.796875	1.870420
0.797363	1.870601
0.797852	1.870601
0.798340	1.870640
0.798828	1.870385
0.799316	1.870558
0.799805	1.870556
0.800293	1.870768
0.800781	1.870573
0.801270	1.870736
0.801758	1.870746
0.802246	1.870731
0.802734	1.870971
0.803223	1.870866
0.803711	1.870647
0.804199	1.870846
0.804687	1.870782
0.805176	1.870920
0.805664	1.871076
0.806152	1.870854
0.806641	1.870892
0.807129	1.871106
0.807617	1.871054
0.808105	1.870819
0.808594	1.870790
0.809082	1.871009
0.809570	1.870902
0.810059	1.871138
0.810547	1.871056
0.811035	1.871037
0.811523	1.871162
0.812012	1.871397
0.812500	1.871284
0.812988	1.870861
0.813477	1.871229
0.813965	1.871185
0.814453	1.871478
0.814941	1.871400
0.815430	1.871299
0.815918	1.871318
0.816406	1.871481
0.816895	1.871376
0.817383	1.871520
0.817871	1.871241
0.818359	1.871502
0.818848	1.871397
0.819336	1.871314
0.819824	1.871259
0.820312	1.871283
0.820801	1.871247
0.821289	1.871317
0.821777	1.871268
0.822266	1.871345
0.822754	1.871281
0.823242	1.871229
0.823730	1.871011
0.824219	1.871153
0.824707	1.871411
0.825195	1.871239
0.825684	1.871146
0.826172	1.871327
0.826660	1.871315
0.827148	1.871403
0.827637	1.871563
0.828125	1.871552
0.828613	1.871860
0.829102	1.871531
0.829590	1.871392
0.830078	1.871483
0.830566	1.871519
0.831055	1.871868
0.831543	1.871763
0.832031	1.871643
0.832520	1.871563
0.833008	1.871422
0.833496	1.871526
0.833984	1.871599
0.834473	1.871245
0.834961	1.871170
0.835449	1.871583
0.835937	1.871517
0.836426	1.871433
0.836914	1.871229
0.837402	1.871378
0.837891	1.871316
0.838379	1.871822
0.838867	1.871577
0.839355	1.871225
0.839844	1.871458
0.840332	1.871609
0.840820	1.871535
0.841309	1.871473
0.841797	1.871423
0.842285	1.871506
0.842773	1.871650
0.843262	1.871633
0.843750	1.871143
0.844238	1.871123
0.844727	1.871471
0.845215	1.871413
0.845703	1.871348
0.846191	1.871415
0.846680	1.871499
0.847168	1.871322
0.847656	1.871510
0.848145	1.871284
0.848633	1.871151
0.849121	1.871307
0.849609	1.871511
0.850098	1.871085
0.850586	1.871090
0.851074	1.871413
0.851562	1.871398
0.852051	1.871267
0.852539	1.871262
0.853027	1.871275
0.853516	1.871217
0.854004	1.871286
0.854492	1.871300
0.854980	1.870706
0.855469	1.871431
0.855957	1.871410
0.856445	1.871276
0.856934	1.871184
0.857422	1.871346
0.857910	1.871201
0.858398	1.871484
0.858887	1.871461
0.859375	1.871386
0.859863	1.871464
0.860352	1.871423
0.860840	1.871561
0.861328	1.871537
0.861816	1.871558
0.862305	1.871504
0.862793	1.871416
0.863281	1.871380
0.863770	1.871427
0.864258	1.871342
0.864746	1.871616
0.865234	1.871390
0.865723	1.871378
0.866211	1.871143
0.866699	1.871208
0.867187	1.871316
0.867676	1.871210
0.868164	1.871299
0.868652	1.871105
0.869141	1.871140
0.869629	1.870973
0.870117	1.870957
0.870605	1.870797
0.871094	1.871084
0.871582	1.871187
0.872070	1.871106
0.872559	1.871052
0.873047	1.870983
0.873535	1.871081
0.874023	1.871237
0.874512	1.871117
0.875000	1.870787
0.875488	1.871157
0.875977	1.871254
0.876465	1.871234
0.876953	1.871091
0.877441	1.870895
0.877930	1.870944
0.878418	1.871082
0.878906	1.871091
0.879395	1.870378
0.879883	1.870648
0.880371	1.870795
0.880859	1.870635
0.881348	1.870631
0.881836	1.870741
0.882324	1.870684
0.882812	1.870561
0.883301	1.870650
0.883789	1.870464
0.884277	1.870345
0.884766	1.870268
0.885254	1.870524
0.885742	1.870484
0.886230	1.870516
0.886719	1.870393
0.887207	1.870403
0.887695	1.870410
0.888184	1.870479
0.888672	1.870467
0.889160	1.870438
0.889648	1.870370
0.890137	1.870360
0.890625	1.870288
0.891113	1.870364
0.891602	1.870293
0.892090	1.870441
0.892578	1.870381
0.893066	1.870462
0.893555	1.870258
0.894043	1.870151
0.894531	1.870393
0.895020	1.870143
0.895508	1.870213
0.895996	1.870090
0.896484	1.870217
0.896973	1.870177
0.897461	1.870564
0.897949	1.870299
0.898437	1.870328
0.898926	1.870295
0.899414	1.870444
0.899902	1.870229
0.900391	1.870334
0.900879	1.870271
0.901367	1.870597
0.901855	1.870349
0.902344	1.870552
0.902832	1.870224
0.903320	1.870377
0.903809	1.870493
0.904297	1.870408
0.904785	1.870190
0.905273	1.870368
0.905762	1.870320
0.906250	1.870433
0.906738	1.870746
0.907227	1.870595
0.907715	1.870407
0.908203	1.870508
0.908691	1.870533
0.909180	1.870289
0.909668	1.870362
0.910156	1.870309
0.910645	1.870352
0.911133	1.870143
0.911621	1.870276
0.912109	1.870196
0.912598	1.870239
0.913086	1.870427
0.913574	1.870207
0.914062	1.870044
0.914551	1.870346
0.915039	1.870395
0.915527	1.870158
0.916016	1.870295
0.916504	1.870216
0.916992	1.870288
0.917480	1.870083
0.917969	1.870280
0.918457	1.870157
0.918945	1.870301
0.919434	1.870190
0.919922	1.870323
0.920410	1.870127
0.920898	1.870421
0.921387	1.870508
0.921875	1.870357
0.922363	1.870413
0.922852	1.870359
0.923340	1.870399
0.923828	1.870104
0.924316	1.870110
0.924805	1.870250
0.925293	1.870328
0.925781	1.870033
0.926270	1.870111
0.926758	1.870177
0.927246	1.870231
0.927734	1.870755
0.928223	1.870249
0.928711	1.870200
0.929199	1.870376
0.929687	1.870515
0.930176	1.870298
0.930664	1.870476
0.931152	1.870508
0.931641	1.870583
0.932129	1.870536
0.932617	1.870534
0.933105	1.870857
0.933594	1.870561
0.934082	1.870764
0.934570	1.870697
0.935059	1.870370
0.935547	1.870658
0.936035	1.870576
0.936523	1.870861
0.937012	1.870828
0.937500	1.870983
0.937988	1.870933
0.938477	1.870969
0.938965	1.870913
0.939453	1.871166
0.939941	1.871072
0.940430	1.870992
0.940918	1.870933
0.941406	1.871167
0.941895	1.871185
0.942383	1.871094
0.942871	1.871082
0.943359	1.870976
0.943848	1.871033
0.944336	1.871204
0.944824	1.871108
0.945312	1.871286
0.945801	1.871157
0.946289	1.871102
0.946777	1.871494
0.947266	1.871384
0.947754	1.871405
0.948242	1.871391
0.948730	1.871550
0.949219	1.871408
0.949707	1.871042
0.950195	1.871279
0.950684	1.871297
0.951172	1.871201
0.951660	1.871209
0.952148	1.871391
0.952637	1.871333
0.953125	1.871491
0.953613	1.871348
0.954102	1.871278
0.954590	1.871270
0.955078	1.871238
0.955566	1.871270
0.956055	1.871417
0.956543	1.871322
0.957031	1.871244
0.957520	1.871282
0.958008	1.871278
0.958496	1.871016
0.958984	1.871051
0.959473	1.871069
0.959961	1.871162
0.960449	1.871099
0.960937	1.871159
0.961426	1.871118
0.961914	1.871279
0.962402	1.871170
0.962891	1.871225
0.963379	1.871378
0.963867	1.871248
0.964355	1.871174
0.964844	1.871018
0.965332	1.871138
0.965820	1.871045
0.966309	1.871158
0.966797	1.871254
0.967285	1.871240
0.967773	1.871093
0.968262	1.870879
0.968750	1.871089
0.969238	1.870996
0.969727	1.871381
0.970215	1.871049
0.970703	1.870954
0.971191	1.871057
0.971680	1.871204
0.972168	1.870972
0.972656	1.871064
0.973145	1.871034
0.973633	1.871062
0.974121	1.870899
0.974609	1.870994
0.975098	1.870958
0.975586	1.870940
0.976074	1.871154
0.976562	1.870933
0.977051	1.870788
0.977539	1.870850
0.978027	1.870833
0.978516	1.870988
0.979004	1.870875
0.979492	1.870882
0.979980	1.870747
0.980469	1.870806
0.980957	1.870723
0.981445	1.870792
0.981934	1.870875
0.982422	1.870617
0.982910	1.870727
0.983398	1.870670
0.983887	1.870663
0.984375	1.870852
0.984863	1.870502
0.985352	1.870605
0.985840	1.870446
0.986328	1.870540
0.986816	1.870583
0.987305	1.870517
0.987793	1.870271
0.988281	1.870417
0.988770	1.870620
0.989258	1.870567
0.989746	1.870547
0.990234	1.870587
0.990723	1.870379
0.991211	1.870440
0.991699	1.870676
0.992187	1.870515
0.992676	1.870323
0.993164	1.870601
0.993652	1.870453
0.994141	1.870404
0.994629	1.870228
0.995117	1.870385
0.995605	1.870357
0.996094	1.870440
0.996582	1.870235
0.997070	1.870273
0.997559	1.870191
0.998047	1.870082
0.998535	1.870298
0.999023	1.870223
0.999512	1.870200
1.000000	1.870279
1.000488	1.870104
1.000977	1.870037
1.001465	1.870505
1.001953	1.870526
1.002441	1.869971
1.002930	1.870204
1.003418	1.870252
1.003906	1.870415
1.004395	1.870393
1.004883	1.870148
1.005371	1.870290
1.005859	1.870441
1.006348	1.870495
1.006836	1.870165
1.007324	1.870166
1.007812	1.870358
1.008301	1.870307
1.008789	1.870224
1.009277	1.870272
1.009766	1.870539
1.010254	1.870229
1.010742	1.870160
1.011230	1.870310
1.011719	1.870451
1.012207	1.869983
1.012695	1.869956
1.013184	1.870346
1.013672	1.870366
1.014160	1.870087
1.014648	1.869880
1.015137	1.869919
1.015625	1.869899
1.016113	1.870353
1.016602	1.870008
1.017090	1.869986
1.017578	1.869877
1.018066	1.869889
1.018555	1.870027
1.019043	1.869828
1.019531	1.869936
1.020020	1.869929
1.020508	1.870011
1.020996	1.870116
1.021484	1.870036
1.021973	1.870059
1.022461	1.870021
1.022949	1.870076
1.023437	1.870082
1.023926	1.870221
1.024414	1.870003
1.024902	1.869797
1.025391	1.870106
1.025879	1.870110
1.026367	1.869935
1.026855	1.870355
1.027344	1.870173
1.027832	1.870492
1.028320	1.870417
1.028809	1.870202
1.029297	1.870224
1.029785	1.870145
1.030273	1.870248
1.030762	1.870333
1.031250	1.870360
1.031738	1.870237
1.032227	1.870460
1.032715	1.870371
1.033203	1.870477
1.033691	1.870457
1.034180	1.870644
1.034668	1.870510
1.035156	1.870699
1.035645	1.870789
1.036133	1.870707
1.036621	1.870553
1.037109	1.870843
1.037598	1.870707
1.038086	1.870489
1.038574	1.870925
1.039062	1.871080
1.039551	1.870657
1.040039	1.870497
1.040527	1.870945
1.041016	1.870896
1.041504	1.870916
1.041992	1.870833
1.042480	1.870815
1.042969	1.870778
1.043457	1.870597
1.043945	1.870938
1.044434	1.871008
1.044922	1.870685
1.045410	1.870800
1.045898	1.871002
1.046387	1.871035
1.046875	1.871153
1.047363	1.871071
1.047852	1.871042
1.048340	1.870953
1.048828	1.871212
1.049316	1.871159
1.049805	1.870628
1.050293	1.870772
1.050781	1.870664
1.051270	1.870982
1.051758	1.871184
1.052246	1.871147
1.052734	1.871077
1.053223	1.870986
1.053711	1.870944
1.054199	1.871142
1.054687	1.871112
1.055176	1.870760
1.055664	1.870961
1.056152	1.871430
1.056641	1.871328
1.057129	1.871263
1.057617	1.870999
1.058105	1.871118
1.058594	1.871141
1.059082	1.871224
1.059570	1.870844
1.060059	1.870847
1.060547	1.870750
1.061035	1.870910
1.061523	1.870791
1.062012	1.870718
1.062500	1.870825
1.062988	1.870782
1.063477	1.870719
1.063965	1.870969
1.064453	1.870907
1.064941	1.870833
1.065430	1.870743
1.065918	1.871231
1.066406	1.871079
1.066895	1.871206
1.067383	1.871126
1.067871	1.871193
1.068359	1.871068
1.068848	1.871253
1.069336	1.871121
1.069824	1.870981
1.070312	1.871145
1.070801	1.871196
1.071289	1.871113
1.071777	1.871299
1.072266	1.870933
1.072754	1.871073
1.073242	1.871210
1.073730	1.871081
1.074219	1.870886
1.074707	1.870887
1.075195	1.870925
1.075684	1.871025
1.076172	1.871292
1.076660	1.870984
1.077148	1.871190
1.077637	1.871087
1.078125	1.871132
1.078613	1.870991
1.079102	1.871093
1.079590	1.871275
1.080078	1.871350
1.080566	1.871223
1.081055	1.871289
1.081543	1.871102
1.082031	1.871234
1.082520	1.871347
1.083008	1.871176
1.083496	1.870884
1.083984	1.871167
1.084473	1.871152
1.084961	1.870949
1.085449	1.871167
1.085937	1.870915
1.086426	1.870879
1.086914	1.870860
1.087402	1.870937
1.087891	1.870930
1.088379	1.870844
1.088867	1.870905
1.089355	1.870929
1.089844	1.870774
1.090332	1.870882
1.090820	1.871053
1.091309	1.870718
1.091797	1.871193
1.092285	1.870994
1.092773	1.870868
1.093262	1.870771
1.093750	1.870813
1.094238	1.870929
1.094727	1.870928
1.095215	1.870736
1.095703	1.870756
1.096191	1.870508
1.096680	1.870758
1.097168	1.870603
1.097656	1.870672
1.098145	1.870763
1.098633	1.870911
1.099121	1.870818
1.099609	1.870890
1.100098	1.870611
1.100586	1.870868
1.101074	1.871040
1.101562	1.870741
1.102051	1.870645
1.102539	1.871015
1.103027	1.870718
1.103516	1.870708
1.104004	1.870558
1.104492	1.870557
1.104980	1.870568
1.105469	1.870611
1.105957	1.870465
1.106445	1.870456
1.106934	1.870417
1.107422	1.870648
1.107910	1.870568
1.108398	1.870573
1.108887	1.870636
1.109375	1.870590
1.109863	1.870619
1.110352	1.870608
1.110840	1.870599
1.111328	1.870739
1.111816	1.870721
1.112305	1.870774
1.112793	1.870678
1.113281	1.870562
1.113770	1.870524
1.114258	1.870769
1.114746	1.870770
1.115234	1.870816
1.115723	1.870875
1.116211	1.870841
1.116699	1.870567
1.117187	1.870725
1.117676	1.870800
1.118164	1.870757
1.118652	1.870637
1.119141	1.870731
1.119629	1.870859
1.120117	1.870713
1.120605	1.870661
1.121094	1.870695
1.121582	1.870850
1.122070	1.870945
1.122559	1.870967
1.123047	1.871018
1.123535	1.870879
1.124023	1.870802
1.124512	1.871049
1.125000	1.870943
1.125488	1.871006
1.125977	1.870962
1.126465	1.870879
1.126953	1.871111
1.127441	1.871170
1.127930	1.871107
1.128418	1.870948
1.128906	1.871110
1.129395	1.871210
1.129883	1.871169
1.130371	1.871121
1.130859	1.870933
1.131348	1.870954
1.131836	1.871131
1.132324	1.871143
1.132812	1.870875
1.133301	1.870866
1.133789	1.870817
1.134277	1.870999
1.134766	1.871021
1.135254	1.870989
1.135742	1.870978
1.136230	1.870794
1.136719	1.870860
1.137207	1.871059
1.137695	1.871196
1.138184	1.870948
1.138672	1.870991
1.139160	1.870957
1.139648	1.871129
1.140137	1.871051
1.140625	1.870983
1.141113	1.871015
1.141602	1.871087
1.142090	1.871036
1.142578	1.870843
1.143066	1.870837
1.143555	1.871030
1.144043	1.871261
1.144531	1.871107
1.145020	1.871110
1.145508	1.870952
1.145996	1.870777
1.146484	1.870899
1.146973	1.871083
1.147461	1.871398
1.147949	1.871256
1.148437	1.871041
1.148926	1.871198
1.149414	1.871256
1.149902	1.871106
1.150391	1.871081
1.150879	1.870983
1.151367	1.871172
1.151855	1.871107
1.152344	1.870908
1.152832	1.871246
1.153320	1.871397
1.153809	1.871070
1.154297	1.871077
1.154785	1.870676
1.155273	1.870863
1.155762	1.870924
1.156250	1.870955
1.156738	1.870908
1.157227	1.870828
1.157715	1.871075
1.158203	1.870935
1.158691	1.870982
1.159180	1.870822
1.159668	1.870765
1.160156	1.871019
1.160645	1.871348
1.161133	1.871189
1.161621	1.871337
1.162109	1.870843
1.162598	1.870965
1.163086	1.871112
1.163574	1.871035
1.164062	1.871040
1.164551	1.870907
1.165039	1.871037
1.165527	1.871024
1.166016	1.871154
1.166504	1.870987
1.166992	1.870794
1.167480	1.871260
1.167969	1.871519
1.168457	1.871423
1.168945	1.871367
1.169434	1.871146
1.169922	1.871410
1.170410	1.871514
1.170898	1.871565
1.171387	1.871728
1.171875	1.871710
1.172363	1.871952
1.172852	1.871824
1.173340	1.871862
1.173828	1.871895
1.174316	1.871783
1.174805	1.871557
1.175293	1.871545
1.175781	1.871716
1.176270	1.871744
1.176758	1.871609
1.177246	1.871657
1.177734	1.871467
1.178223	1.871604
1.178711	1.871892
1.179199	1.871697
1.179687	1.871554
1.180176	1.871885
1.180664	1.871744
1.181152	1.871773
1.181641	1.871802
1.182129	1.871804
1.182617	1.871740
1.183105	1.871795
1.183594	1.871747
1.184082	1.871510
1.184570	1.871401
1.185059	1.871380
1.185547	1.871359
1.186035	1.871623
1.186523	1.871525
1.187012	1.871601
1.187500	1.871389
1.187988	1.871676
1.188477	1.871338
1.188965	1.871282
1.189453	1.871386
1.189941	1.871341
1.190430	1.871156
1.190918	1.871332
1.191406	1.871647
1.191895	1.871591
1.192383	1.871653
1.192871	1.871437
1.193359	1.871513
1.193848	1.871504
1.194336	1.871696
1.194824	1.871394
1.195312	1.871193
1.195801	1.871677
1.196289	1.871549
1.196777	1.871306
1.197266	1.871261
1.197754	1.871202
1.198242	1.871430
1.198730	1.871842
1.199219	1.871562
1.199707	1.871123
1.200195	1.871472
1.200684	1.871411
1.201172	1.871549
1.201660	1.871505
1.202148	1.871480
1.202637	1.871387
1.203125	1.871461
1.203613	1.871377
1.204102	1.871437
1.204590	1.871278
1.205078	1.871577
1.205566	1.871499
1.206055	1.871281
1.206543	1.871373
1.207031	1.871349
1.207520	1.871639
1.208008	1.871603
1.208496	1.871585
1.208984	1.871563
1.209473	1.871489
1.209961	1.871481
1.210449	1.871463
1.210937	1.871505
1.211426	1.871575
1.211914	1.871483
1.212402	1.871399
1.212891	1.871528
1.213379	1.871705
1.213867	1.871524
1.214355	1.871585
1.214844	1.871505
1.215332	1.871541
1.215820	1.871688
1.216309	1.871708
1.216797	1.871574
1.217285	1.871443
1.217773	1.871683
1.218262	1.871691
1.218750	1.871576
1.219238	1.871647
1.219727	1.871719
1.220215	1.871770
1.220703	1.871794
1.221191	1.871754
1.221680	1.871780
1.222168	1.871708
1.222656	1.871455
1.223145	1.871468
1.223633	1.871481
1.224121	1.871581
1.224609	1.871532
1.225098	1.871622
1.225586	1.871499
1.226074	1.871378
1.226562	1.871363
1.227051	1.871611
1.227539	1.871710
1.228027	1.871315
1.228516	1.871364
1.229004	1.871630
1.229492	1.871440
1.229980	1.871564
1.230469	1.871634
1.230957	1.871535
1.231445	1.871789
1.231934	1.871930
1.232422	1.871412
1.232910	1.871574
1.233398	1.871558
1.233887	1.871571
1.234375	1.871414
1.234863	1.871493
1.235352	1.871798
1.235840	1.871353
1.236328	1.871434
1.236816	1.871332
1.237305	1.871319
1.237793	1.871459
1.238281	1.871522
1.238770	1.871199
1.239258	1.871389
1.239746	1.871592
1.240234	1.871470
1.240723	1.871352
1.241211	1.871419
1.241699	1.871321
1.242187	1.871389
1.242676	1.871300
1.243164	1.871478
1.243652	1.871336
1.244141	1.871506
1.244629	1.871478
1.245117	1.871347
1.245605	1.871506
1.246094	1.871646
1.246582	1.871456
1.247070	1.871808
1.247559	1.871697
1.248047	1.871549
1.248535	1.871416
1.249023	1.871657
1.249512	1.871573
1.250000	1.871578
1.250488	1.871587
1.250977	1.871733
1.251465	1.871610
1.251953	1.871458
1.252441	1.871940
1.252930	1.871898
1.253418	1.871387
1.253906	1.871574
1.254395	1.871717
1.254883	1.871542
1.255371	1.871663
1.255859	1.871566
1.256348	1.871441
1.256836	1.871491
1.257324	1.871492
1.257812	1.871417
1.258301	1.871341
1.258789	1.871552
1.259277	1.871611
1.259766	1.871505
1.260254	1.871450
1.260742	1.871741
1.261230	1.871506
1.261719	1.872037
1.262207	1.871671
1.262695	1.871635
1.263184	1.871739
1.263672	1.871701
1.264160	1.871714
1.264648	1.871960
1.265137	1.871689
1.265625	1.871780
1.266113	1.871519
1.266602	1.871666
1.267090	1.871637
1.267578	1.871700
1.268066	1.871590
1.268555	1.871595
1.269043	1.871423
1.269531	1.871719
1.270020	1.871660
1.270508	1.871618
1.270996	1.871788
1.271484	1.871702
1.271973	1.871674
1.272461	1.871688
1.272949	1.871907
1.273437	1.871946
1.273926	1.871812
1.274414	1.871832
1.274902	1.871643
1.275391	1.871550
1.275879	1.871769
1.276367	1.871723
1.276855	1.871738
1.277344	1.871528
1.277832	1.871710
1.278320	1.871630
1.278809	1.871766
1.279297	1.871691
1.279785	1.871560
1.280273	1.871586
1.280762	1.871835
1.281250	1.871570
1.281738	1.871376
1.282227	1.871547
1.282715	1.871558
1.283203	1.871500
1.283691	1.871175
1.284180	1.871497
1.284668	1.871444
1.285156	1.871570
1.285645	1.871558
1.286133	1.871329
1.286621	1.871464
1.287109	1.871530
1.287598	1.871488
1.288086	1.871485
1.288574	1.871399
1.289062	1.871472
1.289551	1.871313
1.290039	1.871276
1.290527	1.871400
1.291016	1.871625
1.291504	1.871312
1.291992	1.871350
1.292480	1.871285
1.292969	1.871349
1.293457	1.871666
1.293945	1.871503
1.294434	1.871409
1.294922	1.871350
1.295410	1.871626
1.295898	1.871376
1.296387	1.871040
1.296875	1.871408
1.297363	1.871528
1.297852	1.871256
1.298340	1.871245
1.298828	1.871193
1.299316	1.871201
1.299805	1.871566
1.300293	1.871494
1.300781	1.871439
1.301270	1.871420
1.301758	1.871299
1.302246	1.871575
1.302734	1.871703
1.303223	1.871513
1.303711	1.871506
1.304199	1.871582
1.304687	1.871589
1.305176	1.871884
1.305664	1.871994
1.306152	1.871603
1.306641	1.871739
1.307129	1.871754
1.307617	1.871807
1.308105	1.871859
1.308594	1.871732
1.309082	1.871755
1.309570	1.871677
1.310059	1.871688
1.310547	1.871777
1.311035	1.871934
1.311523	1.871632
1.312012	1.871859
1.312500	1.871893
1.312988	1.871926
1.313477	1.871885
1.313965	1.871765
1.314453	1.871629
1.314941	1.871779
1.315430	1.871705
1.315918	1.871794
1.316406	1.871680
1.316895	1.871693
1.317383	1.871890
1.317871	1.871681
1.318359	1.871607
1.318848	1.871638
1.319336	1.871712
1.319824	1.871733
1.320312	1.871624
1.320801	1.871572
1.321289	1.871670
1.321777	1.871513
1.322266	1.871735
1.322754	1.871702
1.323242	1.871387
1.323730	1.871358
1.324219	1.871448
1.324707	1.871398
1.325195	1.871448
1.325684	1.871409
1.326172	1.871422
1.326660	1.871350
1.327148	1.871218
1.327637	1.871179
1.328125	1.871533
1.328613	1.871359
1.329102	1.871020
1.329590	1.871323
1.330078	1.871390
1.330566	1.871348
1.331055	1.871246
1.331543	1.871215
1.332031	1.871276
1.332520	1.871324
1.333008	1.871281
1.333496	1.871437
1.333984	1.871395
1.334473	1.871494
1.334961	1.871182
1.335449	1.871096
1.335937	1.871288
1.336426	1.871450
1.336914	1.871365
1.337402	1.871228
1.337891	1.871310
1.338379	1.871342
1.338867	1.871254
1.339355	1.871278
1.339844	1.871401
1.340332	1.871487
1.340820	1.871386
1.341309	1.871398
1.341797	1.871370
1.342285	1.871664
1.342773	1.871946
1.343262	1.871569
1.343750	1.871467
1.344238	1.871724
1.344727	1.871678
1.345215	1.871658
1.345703	1.871616
1.346191	1.871603
1.346680	1.871594
1.347168	1.871624
1.347656	1.871603
1.348145	1.871648
1.348633	1.871696
1.349121	1.871888
1.349609	1.871798
1.350098	1.871874
1.350586	1.871762
1.351074	1.871821
1.351562	1.872015
1.352051	1.871946
1.352539	1.871649
1.353027	1.871793
1.353516	1.871871
1.354004	1.871686
1.354492	1.871898
1.354980	1.871698
1.355469	1.871729
1.355957	1.871411
1.356445	1.871329
1.356934	1.871516
1.357422	1.871591
1.357910	1.871446
1.358398	1.871459
1.358887	1.871342
1.359375	1.871471
1.359863	1.871506
1.360352	1.871499
1.360840	1.871441
1.361328	1.871313
1.361816	1.871245
1.362305	1.871473
1.362793	1.871553
1.363281	1.871331
1.363770	1.871140
1.364258	1.871136
1.364746	1.870979
1.365234	1.871560
1.365723	1.871517
1.366211	1.870977
1.366699	1.871283
1.367187	1.871441
1.367676	1.871381
1.368164	1.871300
1.368652	1.871402
1.369141	1.871301
1.369629	1.871463
1.370117	1.871375
1.370605	1.871245
1.371094	1.871257
1.371582	1.871365
1.372070	1.871381
1.372559	1.871291
1.373047	1.871352
1.373535	1.871616
1.374023	1.871259
1.374512	1.871321
1.375000	1.871234
1.375488	1.871514
1.375977	1.871312
1.376465	1.871001
1.376953	1.871408
1.377441	1.871473
1.377930	1.871376
1.378418	1.871216
1.378906	1.871467
1.379395	1.871409
1.379883	1.871553
1.380371	1.871398
1.380859	1.871487
1.381348	1.871470
1.381836	1.871295
1.382324	1.871283
1.382812	1.871531
1.383301	1.871436
1.383789	1.871448
1.384277	1.871403
1.384766	1.871140
1.385254	1.871677
1.385742	1.871831
1.386230	1.871261
1.386719	1.871405
1.387207	1.871716
1.387695	1.871507
1.388184	1.871396
1.388672	1.871447
1.389160	1.871371
1.389648	1.871185
1.390137	1.871192
1.390625	1.871559
1.391113	1.871762
1.391602	1.871221
1.392090	1.871198
1.392578	1.871519
1.393066	1.871563
1.393555	1.871683
1.394043	1.871610
1.394531	1.871425
1.395020	1.871461
1.395508	1.871630
1.395996	1.871666
1.396484	1.871270
1.396973	1.871745
1.397461	1.871900
1.397949	1.871651
1.398437	1.871636
1.398926	1.871399
1.399414	1.871543
1.399902	1.871895
1.400391	1.871813
1.400879	1.871697
1.401367	1.871671
1.401855	1.871337
1.402344	1.871569
1.402832	1.871493
1.403320	1.871589
1.403809	1.871549
1.404297	1.871656
1.404785	1.871401
1.405273	1.871533
1.405762	1.871572
1.406250	1.871545
1.406738	1.871595
1.407227	1.871690
1.407715	1.871726
1.408203	1.871697
1.408691	1.871657
1.409180	1.871264
1.409668	1.871417
1.410156	1.871427
1.410645	1.871479
1.411133	1.871707
1.411621	1.871629
1.412109	1.871613
1.412598	1.871556
1.413086	1.871340
1.413574	1.871738
1.414062	1.871657
1.414551	1.871616
1.415039	1.871633
1.415527	1.871449
1.416016	1.871564
1.416504	1.871912
1.416992	1.871834
1.417480	1.871609
1.417969	1.871589
1.418457	1.871366
1.418945	1.871668
1.419434	1.871592
1.419922	1.871448
1.420410	1.871276
1.420898	1.871474
1.421387	1.871391
1.421875	1.872111
1.422363	1.871924
1.422852	1.871447
1.423340	1.871679
1.423828	1.871712
1.424316	1.871670
1.424805	1.871633
1.425293	1.871582
1.425781	1.871718
1.426270	1.871372
1.426758	1.871641
1.427246	1.871475
1.427734	1.871456
1.428223	1.871592
1.428711	1.871541
1.429199	1.871722
1.429687	1.871660
1.430176	1.871744
1.430664	1.871616
1.431152	1.871589
1.431641	1.871821
1.432129	1.871672
1.432617	1.871585
1.433105	1.871515
1.433594	1.871694
1.434082	1.871685
1.434570	1.871519
1.435059	1.871462
1.435547	1.871546
1.436035	1.871632
1.436523	1.871656
1.437012	1.871636
1.437500	1.871579
1.437988	1.871382
1.438477	1.871520
1.438965	1.871682
1.439453	1.871412
1.439941	1.871553
1.440430	1.871559
1.440918	1.871638
1.441406	1.871387
1.441895	1.871810
1.442383	1.871707
1.442871	1.871635
1.443359	1.871693
1.443848	1.871799
1.444336	1.871682
1.444824	1.871328
1.445312	1.871581
1.445801	1.871850
1.446289	1.871473
1.446777	1.871653
1.447266	1.871590
1.447754	1.871785
1.448242	1.871873
1.448730	1.871641
1.449219	1.871592
1.449707	1.871593
1.450195	1.871774
1.450684	1.871702
1.451172	1.871590
1.451660	1.871705
1.452148	1.871546
1.452637	1.871555
1.453125	1.871523
1.453613	1.871597
1.454102	1.871541
1.454590	1.871621
1.455078	1.871609
1.455566	1.871618
1.456055	1.871422
1.456543	1.871752
1.457031	1.871556
1.457520	1.871794
1.458008	1.871563
1.458496	1.871639
1.458984	1.871513
1.459473	1.871478
1.459961	1.871418
1.460449	1.871448
1.460937	1.871370
1.461426	1.871420
1.461914	1.871173
1.462402	1.871366
1.462891	1.871159
1.463379	1.871151
1.463867	1.870971
1.464355	1.871171
1.464844	1.870863
1.465332	1.871196
1.465820	1.871405
1.466309	1.871176
1.466797	1.871266
1.467285	1.871387
1.467773	1.871358
1.468262	1.871019
1.468750	1.871077
1.469238	1.871375
1.469727	1.871328
1.470215	1.871059
1.470703	1.870983
1.471191	1.870968
1.471680	1.871201
1.472168	1.871577
1.472656	1.871034
1.473145	1.870948
1.473633	1.871044
1.474121	1.871201
1.474609	1.871173
1.475098	1.871137
1.475586	1.871256
1.476074	1.871326
1.476562	1.871087
1.477051	1.871371
1.477539	1.871398
1.478027	1.871376
1.478516	1.871392
1.479004	1.871383
1.479492	1.871433
1.479980	1.871553
1.480469	1.871495
1.480957	1.871483
1.481445	1.871428
1.481934	1.871682
1.482422	1.871739
1.482910	1.871557
1.483398	1.871599
1.483887	1.871511
1.484375	1.871561
1.484863	1.871652
1.485352	1.871730
1.485840	1.871755
1.486328	1.871747
1.486816	1.871679
1.487305	1.871792
1.487793	1.871901
1.488281	1.871807
1.488770	1.871494
1.489258	1.871804
1.489746	1.871750
1.490234	1.872079
1.490723	1.872056
1.491211	1.871539
1.491699	1.872031
1.492187	1.872087
1.492676	1.871989
1.493164	1.871998
1.493652	1.871899
1.494141	1.871666
1.494629	1.871842
1.495117	1.871885
1.495605	1.871775
1.496094	1.871693
1.496582	1.871632
1.497070	1.871701
1.497559	1.871655
1.498047	1.871726
1.498535	1.871709
1.499023	1.871662
1.499512	1.871522
1.500000	1.871614
1.500488	1.871763
1.500977	1.871563
1.501465	1.871578
1.501953	1.871434
1.502441	1.871513
1.502930	1.871681
1.503418	1.871802
1.503906	1.871634
1.504395	1.871632
1.504883	1.871448
1.505371	1.871415
1.505859	1.871358
1.506348	1.871463
1.506836	1.871323
1.507324	1.871378
1.507812	1.871486
1.508301	1.871345
1.508789	1.871393
1.509277	1.871225
1.509766	1.871243
1.510254	1.871378
1.510742	1.871423
1.511230	1.871491
1.511719	1.871577
1.512207	1.871379
1.512695	1.871309
1.513184	1.871285
1.513672	1.871339
1.514160	1.871613
1.514648	1.871693
1.515137	1.871494
1.515625	1.871519
1.516113	1.871455
1.516602	1.871456
1.517090	1.871382
1.517578	1.871440
1.518066	1.871538
1.518555	1.871384
1.519043	1.871569
1.519531	1.871375
1.520020	1.871311
1.520508	1.871268
1.520996	1.871410
1.521484	1.871608
1.521973	1.871749
1.522461	1.871628
1.522949	1.871624
1.523437	1.871517
1.523926	1.871663
1.524414	1.871749
1.524902	1.871565
1.525391	1.871664
1.525879	1.871567
1.526367	1.871696
1.526855	1.871694
1.527344	1.871647
1.527832	1.871425
1.528320	1.871669
1.528809	1.871540
1.529297	1.871562
1.529785	1.871532
1.530273	1.871387
1.530762	1.871170
1.531250	1.871475
1.531738	1.871517
1.532227	1.871411
1.532715	1.871187
1.533203	1.871613
1.533691	1.871479
1.534180	1.871414
1.534668	1.871389
1.535156	1.871221
1.535645	1.871329
1.536133	1.871630
1.536621	1.871412
1.537109	1.871159
1.537598	1.871329
1.538086	1.871405
1.538574	1.871347
1.539062	1.871176
1.539551	1.871173
1.540039	1.871115
1.540527	1.871311
1.541016	1.871238
1.541504	1.871260
1.541992	1.871237
1.542480	1.871511
1.542969	1.871423
1.543457	1.871181
1.543945	1.871268
1.544434	1.871277
1.544922	1.871193
1.545410	1.871485
1.545898	1.871214
1.546387	1.871204
1.546875	1.871080
1.547363	1.871446
1.547852	1.871267
1.548340	1.871240
1.548828	1.871081
1.549316	1.871200
1.549805	1.871207
1.550293	1.871261
1.550781	1.871176
1.551270	1.871169
1.551758	1.871189
1.552246	1.871146
1.552734	1.870994
1.553223	1.871046
1.553711	1.870968
1.554199	1.871301
1.554687	1.871178
1.555176	1.871058
1.555664	1.871008
1.556152	1.870928
1.556641	1.870988
1.557129	1.871271
1.557617	1.871029
1.558105	1.870791
1.558594	1.871145
1.559082	1.871220
1.559570	1.871127
1.560059	1.871104
1.560547	1.870869
1.561035	1.871074
1.561523	1.871156
1.562012	1.871187
1.562500	1.870634
1.562988	1.870794
1.563477	1.871199
1.563965	1.871015
1.564453	1.870804
1.564941	1.870580
1.565430	1.870719
1.565918	1.871086
1.566406	1.871347
1.566895	1.870816
1.567383	1.870866
1.567871	1.870713
1.568359	1.870828
1.568848	1.870983
1.569336	1.870917
1.569824	1.870747
1.570312	1.870846
1.570801	1.871049
1.571289	1.870944
1.571777	1.871058
1.572266	1.871103
1.572754	1.871159
1.573242	1.871302
1.573730	1.871419
1.574219	1.871390
1.574707	1.871249
1.575195	1.871206
1.575684	1.871089
1.576172	1.871251
1.576660	1.871143
1.577148	1.871116
1.577637	1.871083
1.578125	1.871178
1.578613	1.871351
1.579102	1.871351
1.579590	1.871228
1.580078	1.871277
1.580566	1.871270
1.581055	1.871288
1.581543	1.871372
1.582031	1.871348
1.582520	1.871195
1.583008	1.871312
1.583496	1.871350
1.583984	1.871285
1.584473	1.871259
1.584961	1.871135
1.585449	1.871176
1.585937	1.871124
1.586426	1.871221
1.586914	1.871352
1.587402	1.871032
1.587891	1.871489
1.588379	1.871402
1.588867	1.871210
1.589355	1.871123
1.589844	1.871155
1.590332	1.871377
1.590820	1.871452
1.591309	1.871239
1.591797	1.871190
1.592285	1.871440
1.592773	1.871311
1.593262	1.871436
1.593750	1.871397
1.594238	1.871452
1.594727	1.871403
1.595215	1.871201
1.595703	1.871281
1.596191	1.871059
1.596680	1.871084
1.597168	1.870930
1.597656	1.871091
1.598145	1.871135
1.598633	1.871013
1.599121	1.871112
1.599609	1.870985
1.600098	1.871132
1.600586	1.871103
1.601074	1.871151
1.601562	1.871224
1.602051	1.871231
1.602539	1.871185
1.603027	1.871167
1.603516	1.871196
1.604004	1.871293
1.604492	1.871372
1.604980	1.871271
1.605469	1.870946
1.605957	1.871328
1.606445	1.871422
1.606934	1.871275
1.607422	1.871437
1.607910	1.871295
1.608398	1.871275
1.608887	1.871444
1.609375	1.871628
1.609863	1.871450
1.610352	1.871527
1.610840	1.871130
1.611328	1.871218
1.611816	1.871367
1.612305	1.871375
1.612793	1.871657
1.613281	1.871648
1.613770	1.871726
1.614258	1.871790
1.614746	1.871459
1.615234	1.871994
1.615723	1.872010
1.616211	1.871795
1.616699	1.871872
1.617187	1.871959
1.617676	1.872071
1.618164	1.871653
1.618652	1.871849
1.619141	1.872136
1.619629	1.871869
1.620117	1.871707
1.620605	1.871707
1.621094	1.871852
1.621582	1.872028
1.622070	1.872320
1.622559	1.872015
1.623047	1.872033
1.623535	1.871844
1.624023	1.871842
1.624512	1.872268
1.625000	1.871965
1.625488	1.872030
1.625977	1.872122
1.626465	1.871880
1.626953	1.872226
1.627441	1.872225
1.627930	1.872131
1.628418	1.872187
1.628906	1.871965
1.629395	1.871929
1.629883	1.872038
1.630371	1.872046
1.630859	1.871898
1.631348	1.871859
1.631836	1.871779
1.632324	1.872015
1.632812	1.872502
1.633301	1.872152
1.633789	1.871720
1.634277	1.871993
1.634766	1.872142
1.635254	1.872168
1.635742	1.872109
1.636230	1.871953
1.636719	1.872170
1.637207	1.871847
1.637695	1.871994
1.638184	1.871969
1.638672	1.871811
1.639160	1.871763
1.639648	1.871723
1.640137	1.871863
1.640625	1.871844
1.641113	1.871723
1.641602	1.871620
1.642090	1.871616
1.642578	1.871635
1.643066	1.871548
1.643555	1.871510
1.644043	1.871433
1.644531	1.871638
1.645020	1.871431
1.645508	1.871258
1.645996	1.871276
1.646484	1.871613
1.646973	1.871361
1.647461	1.871414
1.647949	1.871274
1.648437	1.871282
1.648926	1.871461
1.649414	1.871514
1.649902	1.871556
1.650391	1.871457
1.650879	1.871338
1.651367	1.871362
1.651855	1.871444
1.652344	1.871447
1.652832	1.871609
1.653320	1.871518
1.653809	1.871605
1.654297	1.871520
1.654785	1.871527
1.655273	1.871414
1.655762	1.871469
1.656250	1.871428
1.656738	1.871607
1.657227	1.871335
1.657715	1.871511
1.658203	1.871525
1.658691	1.871353
1.659180	1.871525
1.659668	1.871451
1.660156	1.871551
1.660645	1.871660
1.661133	1.871670
1.661621	1.871843
1.662109	1.871473
1.662598	1.871603
1.663086	1.871793
1.663574	1.871622
1.664062	1.871694
1.664551	1.871576
1.665039	1.871582
1.665527	1.871149
1.666016	1.871200
1.666504	1.871511
1.666992	1.871410
1.667480	1.871268
1.667969	1.871200
1.668457	1.871398
1.668945	1.871103
1.669434	1.871251
1.669922	1.871018
1.670410	1.870795
1.670898	1.871009
1.671387	1.871159
1.671875	1.871008
1.672363	1.871176
1.672852	1.870927
1.673340	1.870795
1.673828	1.871254
1.674316	1.870996
1.674805	1.870924
1.675293	1.870985
1.675781	1.870980
1.676270	1.870964
1.676758	1.870915
1.677246	1.870824
1.677734	1.870809
1.678223	1.870965
1.678711	1.870990
1.679199	1.870918
1.679687	1.870874
1.680176	1.870999
1.680664	1.871012
1.681152	1.870857
1.681641	1.871113
1.682129	1.871046
1.682617	1.871087
1.683105	1.871060
1.683594	1.871160
1.684082	1.871137
1.684570	1.871178
1.685059	1.871146
1.685547	1.871150
1.686035	1.871120
1.686523	1.871154
1.687012	1.871102
1.687500	1.870769
1.687988	1.870751
1.688477	1.871102
1.688965	1.871099
1.689453	1.870932
1.689941	1.871008
1.690430	1.871070
1.690918	1.871043
1.691406	1.871401
1.691895	1.871221
1.692383	1.871263
1.692871	1.871229
1.693359	1.871309
1.693848	1.871229
1.694336	1.871306
1.694824	1.871167
1.695312	1.871300
1.695801	1.871246
1.696289	1.871210
1.696777	1.871368
1.697266	1.871290
1.697754	1.871185
1.698242	1.871232
1.698730	1.871404
1.699219	1.871369
1.699707	1.871325
1.700195	1.871201
1.700684	1.871302
1.701172	1.871302
1.701660	1.871491
1.702148	1.871276
1.702637	1.871085
1.703125	1.871165
1.703613	1.871278
1.704102	1.871445
1.704590	1.871397
1.705078	1.871470
1.705566	1.871369
1.706055	1.871194
1.706543	1.871340
1.707031	1.871508
1.707520	1.871252
1.708008	1.871390
1.708496	1.871286
1.708984	1.871556
1.709473	1.871578
1.709961	1.871533
1.710449	1.871331
1.710937	1.871575
1.711426	1.871623
1.711914	1.871656
1.712402	1.871599
1.712891	1.871610
1.713379	1.871599
1.713867	1.871488
1.714355	1.871652
1.714844	1.871269
1.715332	1.871096
1.715820	1.871311
1.716309	1.871426
1.716797	1.871643
1.717285	1.871574
1.717773	1.871804
1.718262	1.871674
1.718750	1.871611
1.719238	1.871728
1.719727	1.871964
1.720215	1.871632
1.720703	1.871467
1.721191	1.871802
1.721680	1.871996
1.722168	1.871614
1.722656	1.871489
1.723145	1.871765
1.723633	1.871667
1.724121	1.871860
1.724609	1.871798
1.725098	1.871685
1.725586	1.871744
1.726074	1.871693
1.726562	1.871725
1.727051	1.871832
1.727539	1.871771
1.728027	1.871881
1.728516	1.871735
1.729004	1.871754
1.729492	1.871880
1.729980	1.871877
1.730469	1.871749
1.730957	1.871715
1.731445	1.871774
1.731934	1.871639
1.732422	1.871619
1.732910	1.871666
1.733398	1.871778
1.733887	1.871696
1.734375	1.871706
1.734863	1.871624
1.735352	1.871570
1.735840	1.871456
1.736328	1.871465
1.736816	1.871484
1.737305	1.871456
1.737793	1.871310
1.738281	1.871210
1.738770	1.871528
1.739258	1.871568
1.739746	1.871499
1.740234	1.871492
1.740723	1.871234
1.741211	1.871492
1.741699	1.871613
1.742187	1.871488
1.742676	1.871462
1.743164	1.871314
1.743652	1.871338
1.744141	1.871406
1.744629	1.871272
1.745117	1.871204
1.745605	1.871181
1.746094	1.871240
1.746582	1.871443
1.747070	1.871536
1.747559	1.871248
1.748047	1.871626
1.748535	1.871270
1.749023	1.871260
1.749512	1.871616
1.750000	1.871588
1.750488	1.871388
1.750977	1.871458
1.751465	1.871773
1.751953	1.871819
1.752441	1.871885
1.752930	1.871800
1.753418	1.871647
1.753906	1.871741
1.754395	1.871723
1.754883	1.871690
1.755371	1.871363
1.755859	1.871781
1.756348	1.871866
1.756836	1.871549
1.757324	1.871592
1.757812	1.871543
1.758301	1.871458
1.758789	1.871827
1.759277	1.871658
1.759766	1.871648
1.760254	1.871694
1.760742	1.871863
1.761230	1.871890
1.761719	1.871795
1.762207	1.871635
1.762695	1.871781
1.763184	1.871690
1.763672	1.871602
1.764160	1.871979
1.764648	1.871907
1.765137	1.871565
1.765625	1.871683
1.766113	1.871629
1.766602	1.871696
1.767090	1.871838
1.767578	1.871774
1.768066	1.871828
1.768555	1.871685
1.769043	1.871694
1.769531	1.871590
1.770020	1.871555
1.770508	1.871641
1.770996	1.871614
1.771484	1.871427
1.771973	1.871675
1.772461	1.871743
1.772949	1.871511
1.773437	1.871737
1.773926	1.871557
1.774414	1.871470
1.774902	1.871358
1.775391	1.871600
1.775879	1.871309
1.776367	1.871415
1.776855	1.871190
1.777344	1.871330
1.777832	1.870990
1.778320	1.871264
1.778809	1.871165
1.779297	1.871092
1.779785	1.870980
1.780273	1.871198
1.780762	1.870994
1.781250	1.871186
1.781738	1.871358
1.782227	1.871305
1.782715	1.871179
1.783203	1.871027
1.783691	1.871095
1.784180	1.870987
1.784668	1.871026
1.785156	1.871139
1.785645	1.871101
1.786133	1.871053
1.786621	1.871096
1.787109	1.871175
1.787598	1.871157
1.788086	1.871345
1.788574	1.871229
1.789062	1.871124
1.789551	1.871237
1.790039	1.871082
1.790527	1.871279
1.791016	1.871598
1.791504	1.871135
1.791992	1.871200
1.792480	1.871298
1.792969	1.871341
1.793457	1.871371
1.793945	1.871392
1.794434	1.871228
1.794922	1.871439
1.795410	1.871589
1.795898	1.871466
1.796387	1.871485
1.796875	1.871480
1.797363	1.871545
1.797852	1.871752
1.798340	1.871612
1.798828	1.871710
1.799316	1.871607
1.799805	1.871701
1.800293	1.871769
1.800781	1.871581
1.801270	1.871662
1.801758	1.871385
1.802246	1.871469
1.802734	1.871262
1.803223	1.871631
1.803711	1.871811
1.804199	1.871359
1.804687	1.871272
1.805176	1.871308
1.805664	1.871334
1.806152	1.871395
1.806641	1.871301
1.807129	1.871261
1.807617	1.871273
1.808105	1.870904
1.808594	1.871270
1.809082	1.871492
1.809570	1.871342
1.810059	1.871274
1.810547	1.871062
1.811035	1.870940
1.811523	1.871298
1.812012	1.871220
1.812500	1.871010
1.812988	1.871120
1.813477	1.870987
1.813965	1.871195
1.814453	1.871309
1.814941	1.871074
1.815430	1.870805
1.815918	1.871045
1.816406	1.871166
1.816895	1.871154
1.817383	1.871295
1.817871	1.871069
1.818359	1.870935
1.818848	1.871168
1.819336	1.871067
1.819824	1.871027
1.820312	1.871033
1.820801	1.871126
1.821289	1.871057
1.821777	1.870833
1.822266	1.871032
1.822754	1.871107
1.823242	1.870874
1.823730	1.870749
1.824219	1.870893
1.824707	1.870920
1.825195	1.871063
1.825684	1.871303
1.826172	1.870727
1.826660	1.870755
1.827148	1.871037
1.827637	1.871120
1.828125	1.871145
1.828613	1.870959
1.829102	1.871017
1.829590	1.870947
1.830078	1.870866
1.830566	1.871094
1.831055	1.871116
1.831543	1.871151
1.832031	1.871095
1.832520	1.871008
1.833008	1.870921
1.833496	1.871369
1.833984	1.871036
1.834473	1.871295
1.834961	1.871129
1.835449	1.871080
1.835937	1.871079
1.836426	1.870991
1.836914	1.870888
1.837402	1.870949
1.837891	1.870904
1.838379	1.871029
1.838867	1.871089
1.839355	1.871053
1.839844	1.870924
1.840332	1.871059
1.840820	1.871033
1.841309	1.871195
1.841797	1.871190
1.842285	1.871143
1.842773	1.871395
1.843262	1.871226
1.843750	1.871046
1.844238	1.871058
1.844727	1.871036
1.845215	1.870905
1.845703	1.871110
1.846191	1.871286
1.846680	1.871095
1.847168	1.870727
1.847656	1.870657
1.848145	1.870792
1.848633	1.870749
1.849121	1.871163
1.849609	1.870764
1.850098	1.870587
1.850586	1.871000
1.851074	1.871210
1.851562	1.871041
1.852051	1.871153
1.852539	1.870911
1.853027	1.871212
1.853516	1.870962
1.854004	1.871156
1.854492	1.871268
1.854980	1.871005
1.855469	1.871000
1.855957	1.871147
1.856445	1.870938
1.856934	1.871127
1.857422	1.871126
1.857910	1.871165
1.858398	1.871087
1.858887	1.871161
1.859375	1.871221
1.859863	1.871089
1.860352	1.871089
1.860840	1.871090
1.861328	1.871041
1.861816	1.871256
1.862305	1.871228
1.862793	1.870988
1.863281	1.871337
1.863770	1.871109
1.864258	1.871091
1.864746	1.871046
1.865234	1.870963
1.865723	1.870861
1.866211	1.871127
1.866699	1.871007
1.867187	1.871308
1.867676	1.871243
1.868164	1.871048
1.868652	1.871057
1.869141	1.871144
1.869629	1.870921
1.870117	1.871268
1.870605	1.871179
1.871094	1.871058
1.871582	1.871246
1.872070	1.871407
1.872559	1.871046
1.873047	1.871168
1.873535	1.871101
1.874023	1.871185
1.874512	1.871005
1.875000	1.871147
1.875488	1.871152
1.875977	1.871143
1.876465	1.871088
1.876953	1.871249
1.877441	1.871090
1.877930	1.871020
1.878418	1.871084
1.878906	1.871073
1.879395	1.871162
1.879883	1.871167
1.880371	1.871071
1.880859	1.870962
1.881348	1.871102
1.881836	1.871250
1.882324	1.871116
1.882812	1.870840
1.883301	1.870974
1.883789	1.871012
1.884277	1.871282
1.884766	1.871501
1.885254	1.871000
1.885742	1.871045
1.886230	1.871319
1.886719	1.871416
1.887207	1.871259
1.887695	1.871420
1.888184	1.871331
1.888672	1.871439
1.889160	1.871527
1.889648	1.871497
1.890137	1.871301
1.890625	1.871409
1.891113	1.871572
1.891602	1.871651
1.892090	1.871517
1.892578	1.871610
1.893066	1.871378
1.893555	1.871551
1.894043	1.871539
1.894531	1.871309
1.895020	1.871219
1.895508	1.871471
1.895996	1.871577
1.896484	1.871622
1.896973	1.871367
1.897461	1.871470
1.897949	1.871458
1.898437	1.871500
1.898926	1.871467
1.899414	1.871461
1.899902	1.871522
1.900391	1.871449
1.900879	1.871443
1.901367	1.871290
1.901855	1.871713
1.902344	1.871500
1.902832	1.871646
1.903320	1.871515
1.903809	1.871242
1.904297	1.871295
1.904785	1.871521
1.905273	1.871374
1.905762	1.871436
1.906250	1.871272
1.906738	1.871338
1.907227	1.871208
1.907715	1.871231
1.908203	1.871309
1.908691	1.871217
1.909180	1.871290
1.909668	1.871406
1.910156	1.871341
1.910645	1.871401
1.911133	1.871250
1.911621	1.871416
1.912109	1.871442
1.912598	1.871408
1.913086	1.871381
1.913574	1.871229
1.914062	1.871184
1.914551	1.871322
1.915039	1.871165
1.915527	1.871124
1.916016	1.871065
1.916504	1.871089
1.916992	1.871298
1.917480	1.871406
1.917969	1.871246
1.918457	1.871064
1.918945	1.871289
1.919434	1.871348
1.919922	1.871342
1.920410	1.871254
1.920898	1.871284
1.921387	1.871343
1.921875	1.871519
1.922363	1.871290
1.922852	1.871217
1.923340	1.871460
1.923828	1.871458
1.924316	1.871511
1.924805	1.871390
1.925293	1.871498
1.925781	1.871370
1.926270	1.871652
1.926758	1.871503
1.927246	1.871649
1.927734	1.871635
1.928223	1.871696
1.928711	1.871415
1.929199	1.871516
1.929687	1.871478
1.930176	1.871634
1.930664	1.871592
1.931152	1.871645
1.931641	1.871535
1.932129	1.871429
1.932617	1.871819
1.933105	1.871838
1.933594	1.871408
1.934082	1.871617
1.934570	1.871690
1.935059	1.871648
1.935547	1.871643
1.936035	1.871578
1.936523	1.871376
1.937012	1.871480
1.937500	1.871333
1.937988	1.871656
1.938477	1.871480
1.938965	1.871519
1.939453	1.871439
1.939941	1.871442
1.940430	1.871373
1.940918	1.871312
1.941406	1.871406
1.941895	1.871537
1.942383	1.871383
1.942871	1.871325
1.943359	1.871215
1.943848	1.871156
1.944336	1.871226
1.944824	1.871186
1.945312	1.871143
1.945801	1.871127
1.946289	1.871322
1.946777	1.871335
1.947266	1.871378
1.947754	1.871399
1.948242	1.871407
1.948730	1.871166
1.949219	1.871403
1.949707	1.871269
1.950195	1.871049
1.950684	1.871251
1.951172	1.871191
1.951660	1.870974
1.952148	1.870798
1.952637	1.871013
1.953125	1.871009
1.953613	1.871200
1.954102	1.871168
1.954590	1.870860
1.955078	1.870805
1.955566	1.871160
1.956055	1.871082
1.956543	1.871023
1.957031	1.870859
1.957520	1.871068
1.958008	1.870966
1.958496	1.870849
1.958984	1.870965
1.959473	1.870890
1.959961	1.870952
1.960449	1.870922
1.960937	1.870736
1.961426	1.870815
1.961914	1.870959
1.962402	1.870925
1.962891	1.870778
1.963379	1.870894
1.963867	1.870814
1.964355	1.870944
1.964844	1.871079
1.965332	1.871019
1.965820	1.871065
1.966309	1.870868
1.966797	1.871130
1.967285	1.871295
1.967773	1.871224
1.968262	1.870973
1.968750	1.870968
1.969238	1.871184
1.969727	1.871194
1.970215	1.871520
1.970703	1.871130
1.971191	1.871038
1.971680	1.871430
1.972168	1.871379
1.972656	1.871311
1.973145	1.871384
1.973633	1.871311
1.974121	1.871313
1.974609	1.871011
1.975098	1.871275
1.975586	1.871262
1.976074	1.871211
1.976562	1.871181
1.977051	1.871264
1.977539	1.871411
1.978027	1.871397
1.978516	1.871353
1.979004	1.871315
1.979492	1.871236
1.979980	1.871296
1.980469	1.871380
1.980957	1.871390
1.981445	1.871429
1.981934	1.871350
1.982422	1.871360
1.982910	1.871265
1.983398	1.871257
1.983887	1.871341
1.984375	1.871278
1.984863	1.871489
1.985352	1.871473
1.985840	1.871477
1.986328	1.871359
1.986816	1.871214
1.987305	1.871243
1.987793	1.871342
1.988281	1.871581
1.988770	1.871798
1.989258	1.871312
1.989746	1.871384
1.990234	1.871655
1.990723	1.871713
1.991211	1.871708
1.991699	1.871707
1.992187	1.871571
1.992676	1.871668
1.993164	1.871561
1.993652	1.871772
1.994141	1.871714
1.994629	1.871727
1.995117	1.871782
1.995605	1.871709
1.996094	1.871679
1.996582	1.871541
1.997070	1.871419
1.997559	1.871441
1.998047	1.871590
1.998535	1.871580
1.999023	1.871426
1.999512	1.871432
2.000000	1.871347
2.000488	1.871488
2.000977	1.871508
2.001465	1.871261
2.001953	1.871619
2.002441	1.871993
2.002930	1.871708
2.003418	1.871701
2.003906	1.871422
2.004395	1.871276
2.004883	1.871401
2.005371	1.871289
2.005859	1.871657
2.006348	1.871413
2.006836	1.871500
2.007324	1.871438
2.007812	1.871237
2.008301	1.871306
2.008789	1.871414
2.009277	1.871336
2.009766	1.871298
2.010254	1.871252
2.010742	1.871284
2.011230	1.871246
2.011719	1.871236
2.012207	1.871272
2.012695	1.871269
2.013184	1.871312
2.013672	1.871428
2.014160	1.871563
2.014648	1.871617
2.015137	1.871298
2.015625	1.871407
2.016113	1.871433
2.016602	1.871292
2.017090	1.871404
2.017578	1.871234
2.018066	1.871250
2.018555	1.871338
2.019043	1.871505
2.019531	1.871379
2.020020	1.871328
2.020508	1.871397
2.020996	1.871508
2.021484	1.871503
2.021973	1.871467
2.022461	1.871226
2.022949	1.871328
2.023437	1.871630
2.023926	1.871372
2.024414	1.871484
2.024902	1.871372
2.025391	1.871392
2.025879	1.871519
2.026367	1.871666
2.026855	1.871475
2.027344	1.871366
2.027832	1.871229
2.028320	1.871264
2.028809	1.871283
2.029297	1.871221
2.029785	1.871387
2.030273	1.871268
2.030762	1.871290
2.031250	1.871328
2.031738	1.871281
2.032227	1.871259
2.032715	1.871212
2.033203	1.871280
2.033691	1.871204
2.034180	1.871043
2.034668	1.871126
2.035156	1.871254
2.035645	1.871195
2.036133	1.871157
2.036621	1.871232
2.037109	1.871125
2.037598	1.871103
2.038086	1.871010
2.038574	1.870955
2.039062	1.871009
2.039551	1.870836
2.040039	1.870948
2.040527	1.870979
2.041016	1.870728
2.041504	1.870903
2.041992	1.870970
2.042480	1.870723
2.042969	1.870689
2.043457	1.870799
2.043945	1.870737
2.044434	1.870736
2.044922	1.870564
2.045410	1.870445
2.045898	1.870538
2.046387	1.870519
2.046875	1.870581
2.047363	1.870399
2.047852	1.870739
2.048340	1.870962
2.048828	1.870672
2.049316	1.870696
2.049805	1.870609
2.050293	1.870765
2.050781	1.870861
2.051270	1.870842
2.051758	1.870856
2.052246	1.870774
2.052734	1.870644
2.053223	1.870724
2.053711	1.870674
2.054199	1.870836
2.054687	1.870836
2.055176	1.870686
2.055664	1.870568
2.056152	1.870904
2.056641	1.870918
2.057129	1.870829
2.057617	1.870857
2.058105	1.870827
2.058594	1.871167
2.059082	1.871121
2.059570	1.871185
2.060059	1.871171
2.060547	1.871088
2.061035	1.871188
2.061523	1.871423
2.062012	1.871513
2.062500	1.871409
2.062988	1.871292
2.063477	1.871479
2.063965	1.871370
2.064453	1.871281
2.064941	1.871190
2.065430	1.871259
2.065918	1.871464
2.066406	1.871428
2.066895	1.871339
2.067383	1.871281
2.067871	1.871405
2.068359	1.871516
2.068848	1.871511
2.069336	1.871471
2.069824	1.871519
2.070312	1.871207
2.070801	1.871573
2.071289	1.871563
2.071777	1.871318
2.072266	1.871258
2.072754	1.871308
2.073242	1.871362
2.073730	1.871661
2.074219	1.871564
2.074707	1.871350
2.075195	1.871163
2.075684	1.871077
2.076172	1.871256
2.076660	1.871243
2.077148	1.871137
2.077637	1.870973
2.078125	1.871269
2.078613	1.871222
2.079102	1.871078
2.079590	1.871220
2.080078	1.871090
2.080566	1.871010
2.081055	1.871417
2.081543	1.871344
2.082031	1.871462
2.082520	1.871304
2.083008	1.870936
2.083496	1.871229
2.083984	1.871103
2.084473	1.871195
2.084961	1.871034
2.085449	1.871068
2.085937	1.871118
2.086426	1.870878
2.086914	1.870841
2.087402	1.870979
2.087891	1.870870
2.088379	1.870870
2.088867	1.870771
2.089355	1.870756
2.089844	1.870783
2.090332	1.870614
2.090820	1.870613
2.091309	1.870696
2.091797	1.870886
2.092285	1.871085
2.092773	1.870941
2.093262	1.871033
2.093750	1.870795
2.094238	1.870678
2.094727	1.871155
2.095215	1.870875
2.095703	1.870798
2.096191	1.870761
2.096680	1.870710
2.097168	1.870936
2.097656	1.870896
2.098145	1.870904
2.098633	1.870778
2.099121	1.870792
2.099609	1.870985
2.100098	1.870771
2.100586	1.870749
2.101074	1.870636
2.101562	1.870913
2.102051	1.870675
2.102539	1.870791
2.103027	1.870637
2.103516	1.870819
2.104004	1.870619
2.104492	1.870915
2.104980	1.870555
2.105469	1.870841
2.105957	1.870922
2.106445	1.870737
2.106934	1.870802
2.107422	1.870783
2.107910	1.870653
2.108398	1.870731
2.108887	1.870803
2.109375	1.870846
2.109863	1.870675
2.110352	1.870765
2.110840	1.870678
2.111328	1.870466
2.111816	1.870869
2.112305	1.870796
2.112793	1.870665
2.113281	1.870471
2.113770	1.870604
2.114258	1.870448
2.114746	1.870506
2.115234	1.870331
2.115723	1.870285
2.116211	1.870249
2.116699	1.870616
2.117187	1.870333
2.117676	1.870151
2.118164	1.870172
2.118652	1.870306
2.119141	1.870348
2.119629	1.870259
2.120117	1.870140
2.120605	1.870115
2.121094	1.870332
2.121582	1.870627
2.122070	1.870187
2.122559	1.870367
2.123047	1.870358
2.123535	1.870531
2.124023	1.870460
2.124512	1.870401
2.125000	1.870290
2.125488	1.870475
2.125977	1.870698
2.126465	1.870148
2.126953	1.870137
2.127441	1.870632
2.127930	1.870605
2.128418	1.870342
2.128906	1.870119
2.129395	1.870342
2.129883	1.870382
2.130371	1.870869
2.130859	1.870603
2.131348	1.870229
2.131836	1.870425
2.132324	1.870747
2.132812	1.870661
2.133301	1.870661
2.133789	1.870594
2.134277	1.870418
2.134766	1.870544
2.135254	1.870486
2.135742	1.870104
2.136230	1.870143
2.136719	1.870672
2.137207	1.870607
2.137695	1.870338
2.138184	1.870255
2.138672	1.870304
2.139160	1.870575
2.139648	1.870780
2.140137	1.870426
2.140625	1.870412
2.141113	1.870677
2.141602	1.870738
2.142090	1.870710
2.142578	1.870720
2.143066	1.870562
2.143555	1.870691
2.144043	1.870436
2.144531	1.870733
2.145020	1.870556
2.145508	1.870488
2.145996	1.870368
2.146484	1.870522
2.146973	1.870563
2.147461	1.870645
2.147949	1.870652
2.148437	1.870547
2.148926	1.870696
2.149414	1.870464
2.149902	1.870756
2.150391	1.870646
2.150879	1.870778
2.151367	1.870954
2.151855	1.871239
2.152344	1.870836
2.152832	1.871027
2.153320	1.871203
2.153809	1.871105
2.154297	1.871212
2.154785	1.871190
2.155273	1.871212
2.155762	1.871221
2.156250	1.871203
2.156738	1.871325
2.157227	1.871206
2.157715	1.871352
2.158203	1.871215
2.158691	1.871166
2.159180	1.871423
2.159668	1.871419
2.160156	1.871172
2.160645	1.871121
2.161133	1.871273
2.161621	1.871283
2.162109	1.871397
2.162598	1.871253
2.163086	1.871129
2.163574	1.871187
2.164062	1.871246
2.164551	1.871160
2.165039	1.871177
2.165527	1.871262
2.166016	1.871372
2.166504	1.871203
2.166992	1.871120
2.167480	1.871330
2.167969	1.871390
2.168457	1.871331
2.168945	1.871319
2.169434	1.871158
2.169922	1.871357
2.170410	1.871358
2.170898	1.871219
2.171387	1.871172
2.171875	1.871241
2.172363	1.871478
2.172852	1.871329
2.173340	1.871284
2.173828	1.871411
2.174316	1.871376
2.174805	1.871458
2.175293	1.871569
2.175781	1.871214
2.176270	1.871229
2.176758	1.871314
2.177246	1.871327
2.177734	1.871327
2.178223	1.871301
2.178711	1.871332
2.179199	1.871326
2.179687	1.871293
2.180176	1.871229
2.180664	1.870971
2.181152	1.871226
2.181641	1.871284
2.182129	1.871184
2.182617	1.870996
2.183105	1.871264
2.183594	1.871048
2.184082	1.871301
2.184570	1.871203
2.185059	1.870782
2.185547	1.871016
2.186035	1.871131
2.186523	1.871052
2.187012	1.871009
2.187500	1.870948
2.187988	1.870975
2.188477	1.870862
2.188965	1.870854
2.189453	1.871282
2.189941	1.871132
2.190430	1.870780
2.190918	1.871027
2.191406	1.871131
2.191895	1.871215
2.192383	1.871146
2.192871	1.871070
2.193359	1.871024
2.193848	1.871165
2.194336	1.871181
2.194824	1.871056
2.195312	1.870756
2.195801	1.871277
2.196289	1.871305
2.196777	1.871077
2.197266	1.871009
2.197754	1.871026
2.198242	1.871106
2.198730	1.871610
2.199219	1.871243
2.199707	1.871033
2.200195	1.871408
2.200684	1.871603
2.201172	1.871481
2.201660	1.871565
2.202148	1.871528
2.202637	1.871536
2.203125	1.871566
2.203613	1.871496
2.204102	1.871282
2.204590	1.871499
2.205078	1.871713
2.205566	1.871448
2.206055	1.871138
2.206543	1.871050
2.207031	1.871190
2.207520	1.871490
2.208008	1.871740
2.208496	1.871486
2.208984	1.871520
2.209473	1.871209
2.209961	1.871323
2.210449	1.871296
2.210937	1.871518
2.211426	1.871271
2.211914	1.871449
2.212402	1.871536
2.212891	1.871168
2.213379	1.871192
2.213867	1.871170
2.214355	1.871104
2.214844	1.871244
2.215332	1.871322
2.215820	1.871256
2.216309	1.871116
2.216797	1.870993
2.217285	1.870954
2.217773	1.871209
2.218262	1.871280
2.218750	1.870982
2.219238	1.871014
2.219727	1.871138
2.220215	1.870981
2.220703	1.870896
2.221191	1.870908
2.221680	1.870914
2.222168	1.871079
2.222656	1.871236
2.223145	1.871009
2.223633	1.870787
2.224121	1.870805
2.224609	1.870824
2.225098	1.870789
2.225586	1.870848
2.226074	1.870639
2.226562	1.870737
2.227051	1.870915
2.227539	1.870719
2.228027	1.870744
2.228516	1.870854
2.229004	1.870812
2.229492	1.870900
2.229980	1.870938
2.230469	1.870958
2.230957	1.870877
2.231445	1.870726
2.231934	1.871147
2.232422	1.871096
2.232910	1.871143
2.233398	1.870891
2.233887	1.870869
2.234375	1.871173
2.234863	1.870924
2.235352	1.870854
2.235840	1.870888
2.236328	1.870959
2.236816	1.870905
2.237305	1.870933
2.237793	1.870847
2.238281	1.871041
2.238770	1.870919
2.239258	1.871021
2.239746	1.870846
2.240234	1.871027
2.240723	1.871246
2.241211	1.871179
2.241699	1.870901
2.242187	1.871318
2.242676	1.871272
2.243164	1.871250
2.243652	1.871374
2.244141	1.871231
2.244629	1.871190
2.245117	1.871132
2.245605	1.871200
2.246094	1.870967
2.246582	1.871060
2.247070	1.871220
2.247559	1.871075
2.248047	1.870928
2.248535	1.871007
2.249023	1.871005
2.249512	1.870999
2.250000	1.870951
2.250488	1.870907
2.250977	1.870773
2.251465	1.871274
2.251953	1.871398
2.252441	1.871231
2.252930	1.871181
2.253418	1.871066
2.253906	1.871196
2.254395	1.871204
2.254883	1.871090
2.255371	1.870597
2.255859	1.870957
2.256348	1.871109
2.256836	1.870987
2.257324	1.870848
2.257812	1.870860
2.258301	1.870857
2.258789	1.870898
2.259277	1.871156
2.259766	1.870735
2.260254	1.871005
2.260742	1.871105
2.261230	1.871159
2.261719	1.871204
2.262207	1.871085
2.262695	1.870868
2.263184	1.871262
2.263672	1.871026
2.264160	1.871332
2.264648	1.871066
2.265137	1.871257
2.265625	1.871322
2.266113	1.871256
2.266602	1.871173
2.267090	1.871239
2.267578	1.871304
2.268066	1.871426
2.268555	1.871335
2.269043	1.871349
2.269531	1.871156
2.270020	1.871173
2.270508	1.871347
2.270996	1.871159
2.271484	1.871268
2.271973	1.871207
2.272461	1.871355
2.272949	1.871236
2.273437	1.871632
2.273926	1.871248
2.274414	1.871602
2.274902	1.871583
2.275391	1.871528
2.275879	1.871403
2.276367	1.871574
2.276855	1.871396
2.277344	1.871596
2.277832	1.871365
2.278320	1.871427
2.278809	1.871262
2.279297	1.871411
2.279785	1.871410
2.280273	1.871313
2.280762	1.871045
2.281250	1.871134
2.281738	1.871325
2.282227	1.871365
2.282715	1.871276
2.283203	1.871094
2.283691	1.871110
2.284180	1.871274
2.284668	1.871166
2.285156	1.871193
2.285645	1.871266
2.286133	1.871491
2.286621	1.871475
2.287109	1.871405
2.287598	1.871387
2.288086	1.871252
2.288574	1.871547
2.289062	1.871336
2.289551	1.871464
2.290039	1.871329
2.290527	1.871535
2.291016	1.871298
2.291504	1.871570
2.291992	1.871450
2.292480	1.871402
2.292969	1.871272
2.293457	1.871218
2.293945	1.871318
2.294434	1.871279
2.294922	1.871234
2.295410	1.871299
2.295898	1.871367
2.296387	1.871416
2.296875	1.871286
2.297363	1.871339
2.297852	1.871450
2.298340	1.871470
2.298828	1.871293
2.299316	1.871265
2.299805	1.871351
2.300293	1.871577
2.300781	1.871497
2.301270	1.871405
2.301758	1.871109
2.302246	1.871430
2.302734	1.871256
2.303223	1.871351
2.303711	1.871182
2.304199	1.871306
2.304687	1.871467
2.305176	1.871251
2.305664	1.871127
2.306152	1.871366
2.306641	1.871218
2.307129	1.871289
2.307617	1.871354
2.308105	1.871196
2.308594	1.871222
2.309082	1.871186
2.309570	1.871387
2.310059	1.871252
2.310547	1.871250
2.311035	1.871091
2.311523	1.871373
2.312012	1.871308
2.312500	1.871300
2.312988	1.871295
2.313477	1.871194
2.313965	1.871201
2.314453	1.871203
2.314941	1.871309
2.315430	1.871461
2.315918	1.871096
2.316406	1.871138
2.316895	1.871064
2.317383	1.871001
2.317871	1.871261
2.318359	1.871235
2.318848	1.870908
2.319336	1.870990
2.319824	1.871034
2.320312	1.871032
2.320801	1.871066
2.321289	1.871075
2.321777	1.870976
2.322266	1.871103
2.322754	1.871246
2.323242	1.871093
2.323730	1.870841
2.324219	1.871099
2.324707	1.871257
2.325195	1.871051
2.325684	1.870818
2.326172	1.870993
2.326660	1.870888
2.327148	1.871436
2.327637	1.871415
2.328125	1.870933
2.328613	1.871173
2.329102	1.871173
2.329590	1.871344
2.330078	1.871071
2.330566	1.871063
2.331055	1.871093
2.331543	1.871241
2.332031	1.871297
2.332520	1.871428
2.333008	1.871220
2.333496	1.871337
2.333984	1.871461
2.334473	1.871272
2.334961	1.871347
2.335449	1.871561
2.335937	1.871352
2.336426	1.871497
2.336914	1.871408
2.337402	1.871444
2.337891	1.871264
2.338379	1.871378
2.338867	1.871400
2.339355	1.871297
2.339844	1.871129
2.340332	1.871378
2.340820	1.871074
2.341309	1.871268
2.341797	1.871175
2.342285	1.871246
2.342773	1.871060
2.343262	1.871278
2.343750	1.871271
2.344238	1.871405
2.344727	1.871321
2.345215	1.871106
2.345703	1.871412
2.346191	1.871403
2.346680	1.871263
2.347168	1.871360
2.347656	1.871268
2.348145	1.871500
2.348633	1.871442
2.349121	1.871287
2.349609	1.871216
2.350098	1.871305
2.350586	1.871297
2.351074	1.871098
2.351562	1.871131
2.352051	1.871223
2.352539	1.871217
2.353027	1.870903
2.353516	1.871296
2.354004	1.871039
2.354492	1.871386
2.354980	1.871316
2.355469	1.871063
2.355957	1.870969
2.356445	1.871138
2.356934	1.871111
2.357422	1.871250
2.357910	1.871153
2.358398	1.871099
2.358887	1.870924
2.359375	1.871082
2.359863	1.871210
2.360352	1.871190
2.360840	1.870901
2.361328	1.871114
2.361816	1.871134
2.362305	1.871200
2.362793	1.871203
2.363281	1.870951
2.363770	1.870951
2.364258	1.871066
2.364746	1.871054
2.365234	1.871055
2.365723	1.870891
2.366211	1.871147
2.366699	1.871271
2.367187	1.870999
2.367676	1.871135
2.368164	1.870862
2.368652	1.871074
2.369141	1.871292
2.369629	1.871184
2.370117	1.870993
2.370605	1.871121
2.371094	1.871210
2.371582	1.871325
2.372070	1.871376
2.372559	1.871268
2.373047	1.871337
2.373535	1.870931
2.374023	1.871049
2.374512	1.871611
2.375000	1.871448
2.375488	1.870929
2.375977	1.871254
2.376465	1.871415
2.376953	1.871457
2.377441	1.871401
2.377930	1.871319
2.378418	1.871372
2.378906	1.871580
2.379395	1.871480
2.379883	1.871578
2.380371	1.871384
2.380859	1.871585
2.381348	1.871596
2.381836	1.871500
2.382324	1.871391
2.382812	1.871398
2.383301	1.871507
2.383789	1.871631
2.384277	1.871407
2.384766	1.871333
2.385254	1.871207
2.385742	1.871331
2.386230	1.871375
2.386719	1.871263
2.387207	1.871314
2.387695	1.871174
2.388184	1.871339
2.388672	1.871327
2.389160	1.871425
2.389648	1.871394
2.390137	1.871309
2.390625	1.871297
2.391113	1.871282
2.391602	1.871456
2.392090	1.871444
2.392578	1.871535
2.393066	1.871491
2.393555	1.871655
2.394043	1.871650
2.394531	1.871463
2.395020	1.871276
2.395508	1.871708
2.395996	1.871499
2.396484	1.871545
2.396973	1.871479
2.397461	1.871481
2.397949	1.871506
2.398437	1.871853
2.398926	1.871251
2.399414	1.871268
2.399902	1.871335
2.400391	1.871475
2.400879	1.871383
2.401367	1.871355
2.401855	1.871527
2.402344	1.871610
2.402832	1.871439
2.403320	1.871486
2.403809	1.871552
2.404297	1.871591
2.404785	1.871536
2.405273	1.871332
2.405762	1.871438
2.406250	1.871436
2.406738	1.871314
2.407227	1.871489
2.407715	1.871516
2.408203	1.871397
2.408691	1.871464
2.409180	1.871567
2.409668	1.871354
2.410156	1.871636
2.410645	1.871404
2.411133	1.871406
2.411621	1.871329
2.412109	1.871590
2.412598	1.871374
2.413086	1.871527
2.413574	1.871347
2.414062	1.871445
2.414551	1.871200
2.415039	1.871376
2.415527	1.871206
2.416016	1.871340
2.416504	1.871326
2.416992	1.871329
2.417480	1.871154
2.417969	1.871563
2.418457	1.871237
2.418945	1.871261
2.419434	1.871558
2.419922	1.871537
2.420410	1.871375
2.420898	1.871491
2.421387	1.871529
2.421875	1.871519
2.422363	1.871555
2.422852	1.871412
2.423340	1.871420
2.423828	1.871339
2.424316	1.871646
2.424805	1.871661
2.425293	1.871277
2.425781	1.871265
2.426270	1.871638
2.426758	1.871503
2.427246	1.871561
2.427734	1.871672
2.428223	1.871450
2.428711	1.871611
2.429199	1.871624
2.429687	1.871537
2.430176	1.871212
2.430664	1.871333
2.431152	1.871373
2.431641	1.871390
2.432129	1.871182
2.432617	1.871513
2.433105	1.871279
2.433594	1.871325
2.434082	1.871403
2.434570	1.871096
2.435059	1.871143
2.435547	1.871357
2.436035	1.871354
2.436523	1.871458
2.437012	1.871380
2.437500	1.871447
2.437988	1.871380
2.438477	1.871387
2.438965	1.871452
2.439453	1.871381
2.439941	1.871413
2.440430	1.871355
2.440918	1.871504
2.441406	1.871599
2.441895	1.871632
2.442383	1.871556
2.442871	1.871513
2.443359	1.871556
2.443848	1.871534
2.444336	1.871425
2.444824	1.871264
2.445312	1.871386
2.445801	1.871486
2.446289	1.871181
2.446777	1.871320
2.447266	1.871416
2.447754	1.871427
2.448242	1.871466
2.448730	1.871449
2.449219	1.871328
2.449707	1.871414
2.450195	1.871503
2.450684	1.871398
2.451172	1.871213
2.451660	1.871328
2.452148	1.871417
2.452637	1.871339
2.453125	1.871058
2.453613	1.871416
2.454102	1.871160
2.454590	1.871335
2.455078	1.871043
2.455566	1.871070
2.456055	1.871071
2.456543	1.871046
2.457031	1.871126
2.457520	1.871074
2.458008	1.871122
2.458496	1.871192
2.458984	1.871060
2.459473	1.871145
2.459961	1.871193
2.460449	1.871257
2.460937	1.871074
2.461426	1.871124
2.461914	1.871050
2.462402	1.871197
2.462891	1.871275
2.463379	1.871129
2.463867	1.871217
2.464355	1.871228
2.464844	1.871242
2.465332	1.871128
2.465820	1.871092
2.466309	1.871312
2.466797	1.871522
2.467285	1.871129
2.467773	1.871223
2.468262	1.871564
2.468750	1.871314
2.469238	1.871298
2.469727	1.871420
2.470215	1.871499
2.470703	1.871289
2.471191	1.871243
2.471680	1.871494
2.472168	1.871600
2.472656	1.871401
2.473145	1.871471
2.473633	1.871392
2.474121	1.871486
2.474609	1.871686
2.475098	1.871550
2.475586	1.871364
2.476074	1.871423
2.476562	1.871558
2.477051	1.871527
2.477539	1.871535
2.478027	1.871440
2.478516	1.871397
2.479004	1.871546
2.479492	1.871367
2.479980	1.871514
2.480469	1.871429
2.480957	1.871490
2.481445	1.871597
2.481934	1.871513
2.482422	1.871531
2.482910	1.871638
2.483398	1.871577
2.483887	1.871696
2.484375	1.871441
2.484863	1.871258
2.485352	1.871480
2.485840	1.871627
2.486328	1.871348
2.486816	1.871395
2.487305	1.871274
2.487793	1.871336
2.488281	1.871516
2.488770	1.871540
2.489258	1.871363
2.489746	1.871365
2.490234	1.871398
2.490723	1.871328
2.491211	1.871385
2.491699	1.871281
2.492187	1.871477
2.492676	1.871337
2.493164	1.871419
2.493652	1.871354
2.494141	1.871525
2.494629	1.871127
2.495117	1.871243
2.495605	1.871184
2.496094	1.871414
2.496582	1.871287
2.497070	1.871279
2.497559	1.871333
2.498047	1.871430
2.498535	1.871536
2.499023	1.871374
2.499512	1.871400
2.500000	1.871477
2.500488	1.871378
2.500977	1.871411
2.501465	1.871401
2.501953	1.871368
2.502441	1.871401
2.502930	1.871543
2.503418	1.871469
2.503906	1.871171
2.504395	1.871372
2.504883	1.871256
2.505371	1.871360
2.505859	1.871448
2.506348	1.871341
2.506836	1.871359
2.507324	1.871429
2.507812	1.871353
2.508301	1.871241
2.508789	1.871268
2.509277	1.871623
2.509766	1.871569
2.510254	1.871500
2.510742	1.871437
2.511230	1.871494
2.511719	1.871544
2.512207	1.871704
2.512695	1.871608
2.513184	1.871651
2.513672	1.871787
2.514160	1.871647
2.514648	1.871978
2.515137	1.871739
2.515625	1.871666
2.516113	1.871733
2.516602	1.871546
2.517090	1.871860
2.517578	1.872126
2.518066	1.871997
2.518555	1.871888
2.519043	1.871818
2.519531	1.871553
2.520020	1.871643
2.520508	1.871735
2.520996	1.871608
2.521484	1.871596
2.521973	1.871680
2.522461	1.871686
2.522949	1.871613
2.523437	1.871615
2.523926	1.871544
2.524414	1.871625
2.524902	1.872010
2.525391	1.871840
2.525879	1.871517
2.526367	1.871630
2.526855	1.871408
2.527344	1.871551
2.527832	1.871627
2.528320	1.871425
2.528809	1.871530
2.529297	1.871243
2.529785	1.871384
2.530273	1.871616
2.530762	1.871527
2.531250	1.871270
2.531738	1.871533
2.532227	1.871480
2.532715	1.871519
2.533203	1.871454
2.533691	1.871323
2.534180	1.871248
2.534668	1.871344
2.535156	1.871168
2.535645	1.871249
2.536133	1.871380
2.536621	1.871359
2.537109	1.871425
2.537598	1.871358
2.538086	1.871381
2.538574	1.871381
2.539062	1.871498
2.539551	1.871384
2.540039	1.871475
2.540527	1.871456
2.541016	1.871436
2.541504	1.871376
2.541992	1.871652
2.542480	1.871486
2.542969	1.871629
2.543457	1.871528
2.543945	1.871481
2.544434	1.871589
2.544922	1.871574
2.545410	1.871772
2.545898	1.871583
2.546387	1.871735
2.546875	1.871576
2.547363	1.871770
2.547852	1.871717
2.548340	1.871888
2.548828	1.871732
2.549316	1.871724
2.549805	1.871826
2.550293	1.871985
2.550781	1.871617
2.551270	1.871752
2.551758	1.871670
2.552246	1.871845
2.552734	1.871777
2.553223	1.871746
2.553711	1.871630
2.554199	1.871665
2.554687	1.871844
2.555176	1.871658
2.555664	1.871502
2.556152	1.871619
2.556641	1.871675
2.557129	1.871635
2.557617	1.871999
2.558105	1.871605
2.558594	1.872026
2.559082	1.871919
2.559570	1.871971
2.560059	1.871641
2.560547	1.871863
2.561035	1.871648
2.561523	1.871816
2.562012	1.871775
2.562500	1.871755
2.562988	1.871518
2.563477	1.871755
2.563965	1.871733
2.564453	1.871702
2.564941	1.871721
2.565430	1.871743
2.565918	1.871647
2.566406	1.871814
2.566895	1.871915
2.567383	1.871693
2.567871	1.871700
2.568359	1.871732
2.568848	1.871844
2.569336	1.871586
2.569824	1.871641
2.570312	1.871651
2.570801	1.871752
2.571289	1.871765
2.571777	1.871842
2.572266	1.871868
2.572754	1.871964
2.573242	1.871826
2.573730	1.871943
2.574219	1.871957
2.574707	1.871963
2.575195	1.871791
2.575684	1.871726
2.576172	1.871805
2.576660	1.871955
2.577148	1.871938
2.577637	1.871840
2.578125	1.871763
2.578613	1.871779
2.579102	1.871844
2.579590	1.871614
2.580078	1.871689
2.580566	1.871753
2.581055	1.871590
2.581543	1.871500
2.582031	1.871999
2.582520	1.872068
2.583008	1.871590
2.583496	1.871667
2.583984	1.871997
2.584473	1.871974
2.584961	1.872031
2.585449	1.871921
2.585937	1.871865
2.586426	1.871807
2.586914	1.871785
2.587402	1.871821
2.587891	1.871547
2.588379	1.871872
2.588867	1.871759
2.589355	1.871597
2.589844	1.871509
2.590332	1.871483
2.590820	1.871514
2.591309	1.871810
2.591797	1.871949
2.592285	1.871856
2.592773	1.871531
2.593262	1.871323
2.593750	1.871579
2.594238	1.871729
2.594727	1.871535
2.595215	1.871604
2.595703	1.871329
2.596191	1.871455
2.596680	1.871813
2.597168	1.871701
2.597656	1.871344
2.598145	1.871546
2.598633	1.871819
2.599121	1.871818
2.599609	1.871805
2.600098	1.871590
2.600586	1.871377
2.601074	1.871632
2.601562	1.871744
2.602051	1.871655
2.602539	1.871293
2.603027	1.871708
2.603516	1.871641
2.604004	1.871544
2.604492	1.871469
2.604980	1.871292
2.605469	1.871390
2.605957	1.871864
2.606445	1.871666
2.606934	1.871221
2.607422	1.871424
2.607910	1.871369
2.608398	1.871436
2.608887	1.871378
2.609375	1.871239
2.609863	1.871165
2.610352	1.871353
2.610840	1.871154
2.611328	1.870956
2.611816	1.870992
2.612305	1.871206
2.612793	1.870970
2.613281	1.871107
2.613770	1.871015
2.614258	1.871184
2.614746	1.871063
2.615234	1.870973
2.615723	1.870868
2.616211	1.871101
2.616699	1.870832
2.617187	1.871004
2.617676	1.870852
2.618164	1.870940
2.618652	1.870910
2.619141	1.871062
2.619629	1.871214
2.620117	1.871167
2.620605	1.871129
2.621094	1.871177
2.621582	1.870958
2.622070	1.871173
2.622559	1.871022
2.623047	1.870628
2.623535	1.870697
2.624023	1.871038
2.624512	1.870839
2.625000	1.870777
2.625488	1.870492
2.625977	1.870546
2.626465	1.870569
2.626953	1.870933
2.627441	1.870762
2.627930	1.870731
2.628418	1.870839
2.628906	1.870779
2.629395	1.870857
2.629883	1.870792
2.630371	1.870711
2.630859	1.870879
2.631348	1.870746
2.631836	1.870923
2.632324	1.871076
2.632812	1.870776
2.633301	1.871103
2.633789	1.870855
2.634277	1.871002
2.634766	1.870871
2.635254	1.870943
2.635742	1.871053
2.636230	1.871162
2.636719	1.870981
2.637207	1.871048
2.637695	1.870999
2.638184	1.871016
2.638672	1.870809
2.639160	1.870821
2.639648	1.871074
2.640137	1.870972
2.640625	1.870844
2.641113	1.870933
2.641602	1.870948
2.642090	1.871240
2.642578	1.871482
2.643066	1.871081
2.643555	1.871334
2.644043	1.871388
2.644531	1.871468
2.645020	1.871535
2.645508	1.871453
2.645996	1.871390
2.646484	1.871444
2.646973	1.871466
2.647461	1.871453
2.647949	1.871444
2.648437	1.871453
2.648926	1.871548
2.649414	1.871575
2.649902	1.871462
2.650391	1.871674
2.650879	1.871589
2.651367	1.871713
2.651855	1.871688
2.652344	1.871732
2.652832	1.871660
2.653320	1.871822
2.653809	1.871832
2.654297	1.871866
2.654785	1.871832
2.655273	1.871721
2.655762	1.871645
2.656250	1.871734
2.656738	1.871772
2.657227	1.871719
2.657715	1.871477
2.658203	1.871635
2.658691	1.871416
2.659180	1.871715
2.659668	1.871828
2.660156	1.871599
2.660645	1.871531
2.661133	1.871761
2.661621	1.871816
2.662109	1.871711
2.662598	1.871661
2.663086	1.871872
2.663574	1.871861
2.664062	1.871825
2.664551	1.871779
2.665039	1.871711
2.665527	1.871938
2.666016	1.871960
2.666504	1.871876
2.666992	1.871727
2.667480	1.871711
2.667969	1.871657
2.668457	1.871789
2.668945	1.871629
2.669434	1.871647
2.669922	1.871656
2.670410	1.871702
2.670898	1.871643
2.671387	1.871909
2.671875	1.871670
2.672363	1.871949
2.672852	1.871776
2.673340	1.871885
2.673828	1.871695
2.674316	1.871721
2.674805	1.871842
2.675293	1.872120
2.675781	1.871705
2.676270	1.871812
2.676758	1.871740
2.677246	1.872030
2.677734	1.871948
2.678223	1.871852
2.678711	1.871672
2.679199	1.871927
2.679687	1.871845
2.680176	1.871931
2.680664	1.871755
2.681152	1.871825
2.681641	1.871877
2.682129	1.871946
2.682617	1.871844
2.683105	1.871891
2.683594	1.871878
2.684082	1.872069
2.684570	1.872100
2.685059	1.872067
2.685547	1.872007
2.686035	1.872003
2.686523	1.871780
2.687012	1.871873
2.687500	1.871990
2.687988	1.871943
2.688477	1.872026
2.688965	1.872026
2.689453	1.871957
2.689941	1.871979
2.690430	1.871896
2.690918	1.871995
2.691406	1.872151
2.691895	1.872198
2.692383	1.872206
2.692871	1.871985
2.693359	1.871861
2.693848	1.871871
2.694336	1.871856
2.694824	1.871915
2.695312	1.871709
2.695801	1.871865
2.696289	1.871785
2.696777	1.871869
2.697266	1.871807
2.697754	1.871520
2.698242	1.871499
2.698730	1.871825
2.699219	1.871877
2.699707	1.871537
2.700195	1.871536
2.700684	1.871696
2.701172	1.871572
2.701660	1.871569
2.702148	1.871561
2.702637	1.871576
2.703125	1.871396
2.703613	1.871423
2.704102	1.871386
2.704590	1.871190
2.705078	1.871243
2.705566	1.871273
2.706055	1.871174
2.706543	1.871272
2.707031	1.871275
2.707520	1.871194
2.708008	1.871553
2.708496	1.871276
2.708984	1.871312
2.709473	1.871245
2.709961	1.871281
2.710449	1.871177
2.710937	1.871137
2.711426	1.871137
2.711914	1.871160
2.712402	1.871047
2.712891	1.871198
2.713379	1.871340
2.713867	1.871179
2.714355	1.871430
2.714844	1.871165
2.715332	1.871138
2.715820	1.871037
2.716309	1.871220
2.716797	1.871134
2.717285	1.871176
2.717773	1.870981
2.718262	1.871065
2.718750	1.870973
2.719238	1.871175
2.719727	1.871087
2.720215	1.871140
2.720703	1.871207
2.721191	1.871223
2.721680	1.871231
2.722168	1.871315
2.722656	1.871378
2.723145	1.871262
2.723633	1.871234
2.724121	1.871248
2.724609	1.871117
2.725098	1.871082
2.725586	1.871110
2.726074	1.871381
2.726562	1.871268
2.727051	1.871301
2.727539	1.871339
2.728027	1.871180
2.728516	1.871210
2.729004	1.871230
2.729492	1.871227
2.729980	1.871206
2.730469	1.871041
2.730957	1.871160
2.731445	1.871137
2.731934	1.871178
2.732422	1.871256
2.732910	1.871124
2.733398	1.871077
2.733887	1.871316
2.734375	1.871364
2.734863	1.871537
2.735352	1.871178
2.735840	1.871208
2.736328	1.871547
2.736816	1.871362
2.737305	1.871389
2.737793	1.871221
2.738281	1.871149
2.738770	1.871273
2.739258	1.871369
2.739746	1.871403
2.740234	1.871210
2.740723	1.871299
2.741211	1.871394
2.741699	1.871317
2.742187	1.871546
2.742676	1.871131
2.743164	1.871126
2.743652	1.871560
2.744141	1.871349
2.744629	1.871498
2.745117	1.871268
2.745605	1.871142
2.746094	1.871528
2.746582	1.871869
2.747070	1.871554
2.747559	1.871493
2.748047	1.871452
2.748535	1.871444
2.749023	1.871520
2.749512	1.871455
2.750000	1.871336
2.750488	1.871443
2.750977	1.871697
2.751465	1.871577
2.751953	1.871762
2.752441	1.871611
2.752930	1.871259
2.753418	1.871595
2.753906	1.871965
2.754395	1.871578
2.754883	1.871536
2.755371	1.871308
2.755859	1.871428
2.756348	1.871521
2.756836	1.871528
2.757324	1.871283
2.757812	1.871266
2.758301	1.871553
2.758789	1.871384
2.759277	1.871467
2.759766	1.871460
2.760254	1.871522
2.760742	1.871328
2.761230	1.870968
2.761719	1.871173
2.762207	1.871430
2.762695	1.871384
2.763184	1.871212
2.763672	1.871329
2.764160	1.871176
2.764648	1.871581
2.765137	1.871504
2.765625	1.871395
2.766113	1.871458
2.766602	1.871088
2.767090	1.871350
2.767578	1.871549
2.768066	1.871403
2.768555	1.871227
2.769043	1.871374
2.769531	1.871312
2.770020	1.871581
2.770508	1.871633
2.770996	1.871121
2.771484	1.871384
2.771973	1.871730
2.772461	1.871844
2.772949	1.871704
2.773437	1.871797
2.773926	1.871636
2.774414	1.871790
2.774902	1.871831
2.775391	1.871534
2.775879	1.871437
2.776367	1.871885
2.776855	1.871816
2.777344	1.871622
2.777832	1.871558
2.778320	1.871522
2.778809	1.871631
2.779297	1.872042
2.779785	1.871880
2.780273	1.871554
2.780762	1.871856
2.781250	1.872081
2.781738	1.871937
2.782227	1.871959
2.782715	1.871861
2.783203	1.872012
2.783691	1.872037
2.784180	1.871979
2.784668	1.871655
2.785156	1.871657
2.785645	1.872171
2.786133	1.871779
2.786621	1.871754
2.787109	1.871710
2.787598	1.871824
2.788086	1.871851
2.788574	1.872239
2.789062	1.871762
2.789551	1.871901
2.790039	1.871719
2.790527	1.871978
2.791016	1.871851
2.791504	1.871965
2.791992	1.871979
2.792480	1.871902
2.792969	1.871672
2.793457	1.871901
2.793945	1.871603
2.794434	1.871716
2.794922	1.871882
2.795410	1.871680
2.795898	1.871561
2.796387	1.871811
2.796875	1.871559
2.797363	1.871840
2.797852	1.871826
2.798340	1.871775
2.798828	1.871654
2.799316	1.871412
2.799805	1.871474
2.800293	1.871483
2.800781	1.871604
2.801270	1.871355
2.801758	1.871504
2.802246	1.871552
2.802734	1.871475
2.803223	1.871594
2.803711	1.871131
2.804199	1.871135
2.804687	1.871578
2.805176	1.871743
2.805664	1.871253
2.806152	1.871372
2.806641	1.871143
2.807129	1.871163
2.807617	1.871205
2.808105	1.871347
2.808594	1.871021
2.809082	1.871209
2.809570	1.871303
2.810059	1.871013
2.810547	1.871123
2.811035	1.871014
2.811523	1.871073
2.812012	1.871073
2.812500	1.871228
2.812988	1.871069
2.813477	1.870888
2.813965	1.871170
2.814453	1.871254
2.814941	1.871245
2.815430	1.871234
2.815918	1.870952
2.816406	1.871251
2.816895	1.871416
2.817383	1.871151
2.817871	1.871102
2.818359	1.871202
2.818848	1.871245
2.819336	1.871025
2.819824	1.871207
2.820312	1.871282
2.820801	1.871170
2.821289	1.871094
2.821777	1.871306
2.822266	1.871540
2.822754	1.871401
2.823242	1.871209
2.823730	1.871199
2.824219	1.871137
2.824707	1.871376
2.825195	1.870997
2.825684	1.871458
2.826172	1.871480
2.826660	1.871401
2.827148	1.871379
2.827637	1.871489
2.828125	1.871419
2.828613	1.871312
2.829102	1.871263
2.829590	1.871452
2.830078	1.871303
2.830566	1.871492
2.831055	1.871289
2.831543	1.871089
2.832031	1.871656
2.832520	1.871680
2.833008	1.871417
2.833496	1.871315
2.833984	1.871338
2.834473	1.871560
2.834961	1.871477
2.835449	1.871368
2.835937	1.871178
2.836426	1.871296
2.836914	1.871345
2.837402	1.871453
2.837891	1.871763
2.838379	1.871358
2.838867	1.871331
2.839355	1.871494
2.839844	1.871536
2.840332	1.871544
2.840820	1.871472
2.841309	1.871409
2.841797	1.871252
2.842285	1.871184
2.842773	1.871317
2.843262	1.871369
2.843750	1.871340
2.844238	1.871022
2.844727	1.871133
2.845215	1.871194
2.845703	1.871145
2.846191	1.871229
2.846680	1.870934
2.847168	1.870799
2.847656	1.871276
2.848145	1.871232
2.848633	1.871132
2.849121	1.870962
2.849609	1.870871
2.850098	1.871068
2.850586	1.871123
2.851074	1.871128
2.851562	1.871036
2.852051	1.871124
2.852539	1.871175
2.853027	1.871163
2.853516	1.871223
2.854004	1.871060
2.854492	1.870839
2.854980	1.871361
2.855469	1.871098
2.855957	1.871114
2.856445	1.871128
2.856934	1.871063
2.857422	1.871195
2.857910	1.871254
2.858398	1.871203
2.858887	1.871162
2.859375	1.871173
2.859863	1.871091
2.860352	1.871275
2.860840	1.871229
2.861328	1.871042
2.861816	1.870940
2.862305	1.871356
2.862793	1.871248
2.863281	1.871159
2.863770	1.871016
2.864258	1.870883
2.864746	1.870902
2.865234	1.870999
2.865723	1.871005
2.866211	1.870844
2.866699	1.870932
2.867187	1.871065
2.867676	1.871196
2.868164	1.871292
2.868652	1.871187
2.869141	1.871017
2.869629	1.871315
2.870117	1.871215
2.870605	1.871083
2.871094	1.871054
2.871582	1.871168
2.872070	1.871302
2.872559	1.871268
2.873047	1.871115
2.873535	1.871110
2.874023	1.870931
2.874512	1.871033
2.875000	1.871196
2.875488	1.871129
2.875977	1.870984
2.876465	1.870822
2.876953	1.871259
2.877441	1.871198
2.877930	1.871135
2.878418	1.871199
2.878906	1.871067
2.879395	1.871339
2.879883	1.870933
2.880371	1.871088
2.880859	1.871133
2.881348	1.871057
2.881836	1.870817
2.882324	1.871106
2.882812	1.871118
2.883301	1.871207
2.883789	1.871651
2.884277	1.871162
2.884766	1.871168
2.885254	1.871134
2.885742	1.871422
2.886230	1.871331
2.886719	1.871216
2.887207	1.871073
2.887695	1.871214
2.888184	1.870993
2.888672	1.871200
2.889160	1.871069
2.889648	1.870859
2.890137	1.871034
2.890625	1.870871
2.891113	1.870838
2.891602	1.871048
2.892090	1.871046
2.892578	1.871206
2.893066	1.871142
2.893555	1.871124
2.894043	1.871116
2.894531	1.871133
2.895020	1.871144
2.895508	1.871009
2.895996	1.871087
2.896484	1.871063
2.896973	1.871080
2.897461	1.871171
2.897949	1.871131
2.898437	1.871153
2.898926	1.871089
2.899414	1.871079
2.899902	1.870990
2.900391	1.870922
2.900879	1.871045
2.901367	1.871047
2.901855	1.871145
2.902344	1.871136
2.902832	1.871151
2.903320	1.871186
2.903809	1.871253
2.904297	1.871339
2.904785	1.871315
2.905273	1.871408
2.905762	1.871450
2.906250	1.871345
2.906738	1.871436
2.907227	1.871457
2.907715	1.871381
2.908203	1.871310
2.908691	1.871374
2.909180	1.871561
2.909668	1.871462
2.910156	1.871401
2.910645	1.871425
2.911133	1.871552
2.911621	1.871548
2.912109	1.871645
2.912598	1.871941
2.913086	1.871928
2.913574	1.871837
2.914062	1.871912
2.914551	1.871723
2.915039	1.871805
2.915527	1.871683
2.916016	1.871815
2.916504	1.871698
2.916992	1.871855
2.917480	1.871888
2.917969	1.871807
2.918457	1.871921
2.918945	1.871888
2.919434	1.871850
2.919922	1.871932
2.920410	1.871910
2.920898	1.871815
2.921387	1.871738
2.921875	1.871603
2.922363	1.871487
2.922852	1.871538
2.923340	1.871485
2.923828	1.871325
2.924316	1.871492
2.924805	1.871499
2.925293	1.871415
2.925781	1.871476
2.926270	1.871464
2.926758	1.871531
2.927246	1.871677
2.927734	1.871589
2.928223	1.871489
2.928711	1.871428
2.929199	1.871380
2.929687	1.871332
2.930176	1.871326
2.930664	1.871217
2.931152	1.871230
2.931641	1.871098
2.932129	1.871217
2.932617	1.871163
2.933105	1.871103
2.933594	1.871080
2.934082	1.871081
2.934570	1.870939
2.935059	1.870967
2.935547	1.870872
2.936035	1.870921
2.936523	1.870940
2.937012	1.870832
2.937500	1.870756
2.937988	1.870893
2.938477	1.870780
2.938965	1.870636
2.939453	1.870888
2.939941	1.870820
2.940430	1.870641
2.940918	1.870672
2.941406	1.870786
2.941895	1.870644
2.942383	1.870676
2.942871	1.870516
2.943359	1.870572
2.943848	1.870304
2.944336	1.870536
2.944824	1.870878
2.945312	1.870319
2.945801	1.870141
2.946289	1.870428
2.946777	1.870346
2.947266	1.870523
2.947754	1.870487
2.948242	1.870562
2.948730	1.870335
2.949219	1.870304
2.949707	1.870497
2.950195	1.870457
2.950684	1.870463
2.951172	1.870411
2.951660	1.870464
2.952148	1.870329
2.952637	1.870510
2.953125	1.870480
2.953613	1.870428
2.954102	1.870525
2.954590	1.870503
2.955078	1.870440
2.955566	1.870409
2.956055	1.870332
2.956543	1.870547
2.957031	1.870465
2.957520	1.870634
2.958008	1.870455
2.958496	1.870157
2.958984	1.870572
2.959473	1.870669
2.959961	1.870557
2.960449	1.870537
2.960937	1.870603
2.961426	1.870870
2.961914	1.870821
2.962402	1.870873
2.962891	1.870574
2.963379	1.870586
2.963867	1.871051
2.964355	1.870713
2.964844	1.870703
2.965332	1.870476
2.965820	1.870499
2.966309	1.870619
2.966797	1.870471
2.967285	1.870445
2.967773	1.870152
2.968262	1.870356
2.968750	1.870658
2.969238	1.870389
2.969727	1.870522
2.970215	1.870276
2.970703	1.870205
2.971191	1.870551
2.971680	1.870481
2.972168	1.870609
2.972656	1.870343
2.973145	1.870265
2.973633	1.870432
2.974121	1.870435
2.974609	1.870384
2.975098	1.870229
2.975586	1.870339
2.976074	1.870585
2.976562	1.870536
2.977051	1.870653
2.977539	1.870416
2.978027	1.870506
2.978516	1.870589
2.979004	1.870626
2.979492	1.870208
2.979980	1.870407
2.980469	1.870490
2.980957	1.870499
2.981445	1.870287
2.981934	1.870363
2.982422	1.870365
2.982910	1.870500
2.983398	1.870708
2.983887	1.870437
2.984375	1.870343
2.984863	1.870587
2.985352	1.870529
2.985840	1.870666
2.986328	1.870704
2.986816	1.870454
2.987305	1.870573
2.987793	1.870662
2.988281	1.870547
2.988770	1.870371
2.989258	1.870637
2.989746	1.870753
2.990234	1.870593
2.990723	1.870710
2.991211	1.870609
2.991699	1.870510
2.992187	1.870944
2.992676	1.870703
2.993164	1.870511
2.993652	1.870863
2.994141	1.870872
2.994629	1.870890
2.995117	1.870947
2.995605	1.870832
2.996094	1.870922
2.996582	1.870921
2.997070	1.871022
2.997559	1.870719
2.998047	1.870830
2.998535	1.870942
2.999023	1.870833
2.999512	1.870774
3.000000	1.870843
3.000488	1.871065
3.000977	1.870858
3.001465	1.871201
3.001953	1.870832
3.002441	1.870921
3.002930	1.871194
3.003418	1.871146
3.003906	1.871132
3.004395	1.871163
3.004883	1.871015
3.005371	1.871060
3.005859	1.870803
3.006348	1.871266
3.006836	1.871207
3.007324	1.871073
3.007812	1.871134
3.008301	1.871189
3.008789	1.871074
3.009277	1.871289
3.009766	1.871251
3.010254	1.871256
3.010742	1.871088
3.011230	1.871159
3.011719	1.871209
3.012207	1.871168
3.012695	1.871250
3.013184	1.871268
3.013672	1.871168
3.014160	1.871127
3.014648	1.871168
3.015137	1.871055
3.015625	1.871214
3.016113	1.871058
3.016602	1.871256
3.017090	1.871185
3.017578	1.871228
3.018066	1.870983
3.018555	1.871109
3.019043	1.871168
3.019531	1.871308
3.020020	1.871076
3.020508	1.871074
3.020996	1.871013
3.021484	1.870998
3.021973	1.871192
3.022461	1.871096
3.022949	1.870973
3.023437	1.871039
3.023926	1.870990
3.024414	1.870870
3.024902	1.871165
3.025391	1.870736
3.025879	1.871031
3.026367	1.870870
3.026855	1.870866
3.027344	1.870611
3.027832	1.870816
3.028320	1.870622
3.028809	1.870796
3.029297	1.870766
3.029785	1.870840
3.030273	1.870530
3.030762	1.870773
3.031250	1.870914
3.031738	1.870791
3.032227	1.870633
3.032715	1.870857
3.033203	1.870642
3.033691	1.870877
3.034180	1.870845
3.034668	1.870592
3.035156	1.870771
3.035645	1.870635
3.036133	1.870605
3.036621	1.870414
3.037109	1.870468
3.037598	1.870512
3.038086	1.870659
3.038574	1.870412
3.039062	1.870439
3.039551	1.870336
3.040039	1.870711
3.040527	1.870564
3.041016	1.870677
3.041504	1.870699
3.041992	1.870753
3.042480	1.870672
3.042969	1.870841
3.043457	1.870761
3.043945	1.870949
3.044434	1.870887
3.044922	1.870551
3.045410	1.870758
3.045898	1.870877
3.046387	1.870799
3.046875	1.870924
3.047363	1.870866
3.047852	1.871052
3.048340	1.870941
3.048828	1.870910
3.049316	1.871003
3.049805	1.870839
3.050293	1.871038
3.050781	1.871074
3.051270	1.870947
3.051758	1.870894
3.052246	1.871136
3.052734	1.870937
3.053223	1.871326
3.053711	1.871064
3.054199	1.871071
3.054687	1.870887
3.055176	1.871080
3.055664	1.871090
3.056152	1.871115
3.056641	1.871064
3.057129	1.871222
3.057617	1.871073
3.058105	1.871265
3.058594	1.870918
3.059082	1.871168
3.059570	1.871305
3.060059	1.871294
3.060547	1.871073
3.061035	1.871194
3.061523	1.871210
3.062012	1.871415
3.062500	1.871608
3.062988	1.871118
3.063477	1.871162
3.063965	1.871491
3.064453	1.871492
3.064941	1.871517
3.065430	1.871237
3.065918	1.871323
3.066406	1.871391
3.066895	1.871419
3.067383	1.871348
3.067871	1.871044
3.068359	1.871236
3.068848	1.871132
3.069336	1.871272
3.069824	1.871010
3.070312	1.871179
3.070801	1.871040
3.071289	1.871118
3.071777	1.871239
3.072266	1.871225
3.072754	1.871140
3.073242	1.871210
3.073730	1.871233
3.074219	1.871180
3.074707	1.871155
3.075195	1.871007
3.075684	1.871192
3.076172	1.871187
3.076660	1.871256
3.077148	1.871091
3.077637	1.871206
3.078125	1.871249
3.078613	1.871248
3.079102	1.871220
3.079590	1.871205
3.080078	1.871208
3.080566	1.871489
3.081055	1.871505
3.081543	1.871334
3.082031	1.871336
3.082520	1.871323
3.083008	1.871309
3.083496	1.871408
3.083984	1.871406
3.084473	1.871536
3.084961	1.871603
3.085449	1.871448
3.085937	1.871631
3.086426	1.871544
3.086914	1.871475
3.087402	1.871669
3.087891	1.871826
3.088379	1.871768
3.088867	1.871647
3.089355	1.871744
3.089844	1.871494
3.090332	1.871615
3.090820	1.871578
3.091309	1.871780
3.091797	1.871885
3.092285	1.872008
3.092773	1.871937
3.093262	1.871832
3.093750	1.871885
3.094238	1.871634
3.094727	1.871681
3.095215	1.871638
3.095703	1.871645
3.096191	1.871719
3.096680	1.871679
3.097168	1.871378
3.097656	1.871468
3.098145	1.871375
3.098633	1.871682
3.099121	1.871868
3.099609	1.871286
3.100098	1.871411
3.100586	1.871798
3.101074	1.871860
3.101562	1.871599
3.102051	1.871728
3.102539	1.871463
3.103027	1.871467
3.103516	1.871572
3.104004	1.871514
3.104492	1.871330
3.104980	1.871566
3.105469	1.871313
3.105957	1.871225
3.106445	1.871162
3.106934	1.871178
3.107422	1.871121
3.107910	1.871385
3.108398	1.871295
3.108887	1.870917
3.109375	1.871094
3.109863	1.871267
3.110352	1.871253
3.110840	1.871153
3.111328	1.871157
3.111816	1.871126
3.112305	1.871198
3.112793	1.871093
3.113281	1.871143
3.113770	1.871310
3.114258	1.871011
3.114746	1.871101
3.115234	1.870645
3.115723	1.870458
3.116211	1.870726
3.116699	1.870739
3.117187	1.870860
3.117676	1.870827
3.118164	1.870943
3.118652	1.870894
3.119141	1.870919
3.119629	1.870818
3.120117	1.871047
3.120605	1.871071
3.121094	1.870988
3.121582	1.871035
3.122070	1.871220
3.122559	1.870932
3.123047	1.870868
3.123535	1.871293
3.124023	1.870946
3.124512	1.870984
3.125000	1.870998
3.125488	1.870759
3.125977	1.870946
3.126465	1.871032
3.126953	1.870906
3.127441	1.870949
3.127930	1.870821
3.128418	1.870912
3.128906	1.870720
3.129395	1.871005
3.129883	1.870816
3.130371	1.870810
3.130859	1.870722
3.131348	1.870847
3.131836	1.870734
3.132324	1.871135
3.132812	1.870971
3.133301	1.871064
3.133789	1.871059
3.134277	1.870807
3.134766	1.870964
3.135254	1.870905
3.135742	1.870983
3.136230	1.870954
3.136719	1.871134
3.137207	1.870926
3.137695	1.871010
3.138184	1.870815
3.138672	1.870949
3.139160	1.870945
3.139648	1.870992
3.140137	1.871194
3.140625	1.870933
3.141113	1.870980
3.141602	1.870819
3.142090	1.871076
3.142578	1.871077
3.143066	1.870962
3.143555	1.870810
3.144043	1.871021
3.144531	1.870816
3.145020	1.871061
3.145508	1.871036
3.145996	1.870983
3.146484	1.871137
3.146973	1.871015
3.147461	1.871044
3.147949	1.870991
3.148437	1.870979
3.148926	1.870844
3.149414	1.871001
3.149902	1.870898
3.150391	1.871068
3.150879	1.870913
3.151367	1.871033
3.151855	1.870993
3.152344	1.871170
3.152832	1.871107
3.153320	1.871186
3.153809	1.871113
3.154297	1.871276
3.154785	1.871189
3.155273	1.871329
3.155762	1.871241
3.156250	1.871126
3.156738	1.871117
3.157227	1.871307
3.157715	1.871199
3.158203	1.871062
3.158691	1.871088
3.159180	1.871077
3.159668	1.871057
3.160156	1.870864
3.160645	1.871062
3.161133	1.870943
3.161621	1.871251
3.162109	1.871192
3.162598	1.871228
3.163086	1.870998
3.163574	1.871100
3.164062	1.871256
3.164551	1.871254
3.165039	1.871151
3.165527	1.871077
3.166016	1.871158
3.166504	1.871314
3.166992	1.871389
3.167480	1.871398
3.167969	1.871554
3.168457	1.871621
3.168945	1.871511
3.169434	1.871390
3.169922	1.871477
3.170410	1.871431
3.170898	1.871353
3.171387	1.871442
3.171875	1.871309
3.172363	1.871505
3.172852	1.871314
3.173340	1.871337
3.173828	1.871193
3.174316	1.871396
3.174805	1.871372
3.175293	1.871320
3.175781	1.871251
3.176270	1.871517
3.176758	1.871245
3.177246	1.871653
3.177734	1.871459
3.178223	1.871371
3.178711	1.871217
3.179199	1.871599
3.179687	1.871392
3.180176	1.871392
3.180664	1.871314
3.181152	1.871325
3.181641	1.871449
3.182129	1.871508
3.182617	1.871560
3.183105	1.871478
3.183594	1.871730
3.184082	1.871559
3.184570	1.871574
3.185059	1.871727
3.185547	1.871651
3.186035	1.871724
3.186523	1.871798
3.187012	1.871563
3.187500	1.871660
3.187988	1.871724
3.188477	1.871715
3.188965	1.871685
3.189453	1.871697
3.189941	1.871674
3.190430	1.871760
3.190918	1.871703
3.191406	1.871744
3.191895	1.871635
3.192383	1.871886
3.192871	1.872004
3.193359	1.871843
3.193848	1.871859
3.194336	1.871978
3.194824	1.872051
3.195312	1.871705
3.195801	1.871827
3.196289	1.871830
3.196777	1.871818
3.197266	1.871711
3.197754	1.871907
3.198242	1.871940
3.198730	1.871801
3.199219	1.871884
3.199707	1.871727
3.200195	1.871760
3.200684	1.872024
3.201172	1.871988
3.201660	1.871613
3.202148	1.872074
3.202637	1.871992
3.203125	1.872043
3.203613	1.871979
3.204102	1.871834
3.204590	1.871722
3.205078	1.871727
3.205566	1.871533
3.206055	1.871667
3.206543	1.871497
3.207031	1.871532
3.207520	1.871735
3.208008	1.871460
3.208496	1.871173
3.208984	1.871388
3.209473	1.871376
3.209961	1.871381
3.210449	1.871340
3.210937	1.871334
3.211426	1.871447
3.211914	1.871420
3.212402	1.871278
3.212891	1.871173
3.213379	1.871552
3.213867	1.871465
3.214355	1.871277
3.214844	1.871323
3.215332	1.871495
3.215820	1.871322
3.216309	1.871463
3.216797	1.871506
3.217285	1.871351
3.217773	1.871228
3.218262	1.871276
3.218750	1.871423
3.219238	1.871306
3.219727	1.871119
3.220215	1.871203
3.220703	1.871216
3.221191	1.871244
3.221680	1.871171
3.222168	1.871264
3.222656	1.871178
3.223145	1.871192
3.223633	1.871378
3.224121	1.871461
3.224609	1.871606
3.225098	1.871515
3.225586	1.871666
3.226074	1.871487
3.226562	1.871384
3.227051	1.871617
3.227539	1.871630
3.228027	1.871699
3.228516	1.871672
3.229004	1.871615
3.229492	1.871478
3.229980	1.871531
3.230469	1.871466
3.230957	1.871278
3.231445	1.871347
3.231934	1.871545
3.232422	1.871312
3.232910	1.871169
3.233398	1.871293
3.233887	1.871308
3.234375	1.871098
3.234863	1.871024
3.235352	1.871037
3.235840	1.871073
3.236328	1.871487
3.236816	1.871345
3.237305	1.870988
3.237793	1.870985
3.238281	1.870912
3.238770	1.871004
3.239258	1.871062
3.239746	1.870952
3.240234	1.871018
3.240723	1.870653
3.241211	1.870786
3.241699	1.871063
3.242187	1.871129
3.242676	1.870853
3.243164	1.870802
3.243652	1.870703
3.244141	1.870843
3.244629	1.871011
3.245117	1.870704
3.245605	1.870758
3.246094	1.870725
3.246582	1.870869
3.247070	1.870587
3.247559	1.870429
3.248047	1.870890
3.248535	1.870877
3.249023	1.870551
3.249512	1.870584
3.250000	1.870687
3.250488	1.870583
3.250977	1.870736
3.251465	1.870628
3.251953	1.870706
3.252441	1.870603
3.252930	1.870650
3.253418	1.870727
3.253906	1.870738
3.254395	1.870688
3.254883	1.870736
3.255371	1.870389
3.255859	1.870594
3.256348	1.870497
3.256836	1.870563
3.257324	1.870601
3.257812	1.870668
3.258301	1.870479
3.258789	1.870717
3.259277	1.870857
3.259766	1.870706
3.260254	1.870656
3.260742	1.870902
3.261230	1.870812
3.261719	1.870780
3.262207	1.870871
3.262695	1.871049
3.263184	1.870970
3.263672	1.870979
3.264160	1.870908
3.264648	1.870783
3.265137	1.870940
3.265625	1.871155
3.266113	1.870974
3.266602	1.870771
3.267090	1.870945
3.267578	1.870862
3.268066	1.870830
3.268555	1.870973
3.269043	1.870968
3.269531	1.870955
3.270020	1.870930
3.270508	1.870908
3.270996	1.871121
3.271484	1.871153
3.271973	1.871187
3.272461	1.871326
3.272949	1.871488
3.273437	1.871316
3.273926	1.871347
3.274414	1.871322
3.274902	1.870992
3.275391	1.871157
3.275879	1.871055
3.276367	1.871228
3.276855	1.871027
3.277344	1.871233
3.277832	1.871125
3.278320	1.871270
3.278809	1.871254
3.279297	1.871090
3.279785	1.871175
3.280273	1.871422
3.280762	1.871365
3.281250	1.871342
3.281738	1.871350
3.282227	1.871326
3.282715	1.871408
3.283203	1.871231
3.283691	1.871576
3.284180	1.871575
3.284668	1.871693
3.285156	1.871564
3.285645	1.871464
3.286133	1.871420
3.286621	1.871611
3.287109	1.871420
3.287598	1.871500
3.288086	1.871447
3.288574	1.871500
3.289062	1.871571
3.289551	1.871702
3.290039	1.871625
3.290527	1.871547
3.291016	1.871632
3.291504	1.871737
3.291992	1.871565
3.292480	1.871743
3.292969	1.871707
3.293457	1.871789
3.293945	1.871699
3.294434	1.871823
3.294922	1.871702
3.295410	1.871715
3.295898	1.871709
3.296387	1.871918
3.296875	1.871951
3.297363	1.871802
3.297852	1.871746
3.298340	1.871639
3.298828	1.871691
3.299316	1.871872
3.299805	1.871735
3.300293	1.871658
3.300781	1.871501
3.301270	1.871480
3.301758	1.871777
3.302246	1.871589
3.302734	1.871585
3.303223	1.871568
3.303711	1.871822
3.304199	1.871509
3.304687	1.871992
3.305176	1.871597
3.305664	1.871935
3.306152	1.871843
3.306641	1.871787
3.307129	1.871570
3.307617	1.871680
3.308105	1.871543
3.308594	1.871443
3.309082	1.871326
3.309570	1.871325
3.310059	1.871307
3.310547	1.871416
3.311035	1.871365
3.311523	1.871129
3.312012	1.871333
3.312500	1.871297
3.312988	1.871370
3.313477	1.871364
3.313965	1.871432
3.314453	1.871334
3.314941	1.871564
3.315430	1.871267
3.315918	1.871280
3.316406	1.871425
3.316895	1.871469
3.317383	1.871450
3.317871	1.871471
3.318359	1.871376
3.318848	1.871316
3.319336	1.871568
3.319824	1.871311
3.320312	1.871036
3.320801	1.871127
3.321289	1.871254
3.321777	1.871371
3.322266	1.871200
3.322754	1.871278
3.323242	1.871337
3.323730	1.871113
3.324219	1.871387
3.324707	1.871248
3.325195	1.871401
3.325684	1.871049
3.326172	1.870990
3.326660	1.871307
3.327148	1.871400
3.327637	1.871067
3.328125	1.871206
3.328613	1.871419
3.329102	1.871320
3.329590	1.871397
3.330078	1.871250
3.330566	1.871375
3.331055	1.871198
3.331543	1.871040
3.332031	1.871289
3.332520	1.871264
3.333008	1.871372
3.333496	1.871325
3.333984	1.871358
3.334473	1.871345
3.334961	1.871373
3.335449	1.871350
3.335937	1.871343
3.336426	1.871328
3.336914	1.871403
3.337402	1.871210
3.337891	1.871172
3.338379	1.871286
3.338867	1.871093
3.339355	1.871202
3.339844	1.871192
3.340332	1.871367
3.340820	1.871400
3.341309	1.871326
3.341797	1.871350
3.342285	1.871569
3.342773	1.871466
3.343262	1.871353
3.343750	1.871355
3.344238	1.871561
3.344727	1.871350
3.345215	1.871217
3.345703	1.871279
3.346191	1.871155
3.346680	1.871254
3.347168	1.871229
3.347656	1.871358
3.348145	1.871287
3.348633	1.871415
3.349121	1.871459
3.349609	1.871422
3.350098	1.871547
3.350586	1.871413
3.351074	1.871499
3.351562	1.871882
3.352051	1.871670
3.352539	1.871784
3.353027	1.871703
3.353516	1.871567
3.354004	1.871683
3.354492	1.871654
3.354980	1.871704
3.355469	1.871567
3.355957	1.871957
3.356445	1.871705
3.356934	1.871815
3.357422	1.871894
3.357910	1.871600
3.358398	1.871816
3.358887	1.872040
3.359375	1.872116
3.359863	1.872081
3.360352	1.871906
3.360840	1.871872
3.361328	1.871963
3.361816	1.871965
3.362305	1.872274
3.362793	1.872162
3.363281	1.872377
3.363770	1.872214
3.364258	1.872337
3.364746	1.872356
3.365234	1.871995
3.365723	1.872195
3.366211	1.872626
3.366699	1.872126
3.367187	1.871949
3.367676	1.872491
3.368164	1.872503
3.368652	1.872436
3.369141	1.872394
3.369629	1.872356
3.370117	1.872390
3.370605	1.872576
3.371094	1.872572
3.371582	1.872251
3.372070	1.872433
3.372559	1.872800
3.373047	1.872462
3.373535	1.872362
3.374023	1.872220
3.374512	1.872405
3.375000	1.872648
3.375488	1.872768
3.375977	1.872218
3.376465	1.872230
3.376953	1.872372
3.377441	1.872561
3.377930	1.872328
3.378418	1.872334
3.378906	1.872021
3.379395	1.872143
3.379883	1.872319
3.380371	1.872058
3.380859	1.872060
3.381348	1.872151
3.381836	1.872243
3.382324	1.872162
3.382812	1.871915
3.383301	1.871992
3.383789	1.871973
3.384277	1.871846
3.384766	1.871868
3.385254	1.872104
3.385742	1.871805
3.386230	1.872159
3.386719	1.871956
3.387207	1.871682
3.387695	1.871891
3.388184	1.872167
3.388672	1.871902
3.389160	1.871953
3.389648	1.871737
3.390137	1.871855
3.390625	1.871578
3.391113	1.871791
3.391602	1.871888
3.392090	1.871743
3.392578	1.871815
3.393066	1.871838
3.393555	1.871442
3.394043	1.871686
3.394531	1.871779
3.395020	1.871586
3.395508	1.871605
3.395996	1.871899
3.396484	1.871807
3.396973	1.871436
3.397461	1.871433
3.397949	1.871752
3.398437	1.871737
3.398926	1.871714
3.399414	1.871609
3.399902	1.871529
3.400391	1.871705
3.400879	1.871999
3.401367	1.871608
3.401855	1.871386
3.402344	1.871860
3.402832	1.871890
3.403320	1.871929
3.403809	1.871828
3.404297	1.871765
3.404785	1.871871
3.405273	1.871798
3.405762	1.871772
3.406250	1.871993
3.406738	1.871823
3.407227	1.872037
3.407715	1.871951
3.408203	1.871850
3.408691	1.871907
3.409180	1.871930
3.409668	1.871921
3.410156	1.872131
3.410645	1.871878
3.411133	1.871775
3.411621	1.871891
3.412109	1.871992
3.412598	1.871931
3.413086	1.871837
3.413574	1.871843
3.414062	1.871790
3.414551	1.871692
3.415039	1.871805
3.415527	1.871573
3.416016	1.871685
3.416504	1.871693
3.416992	1.871593
3.417480	1.871495
3.417969	1.871843
3.418457	1.871699
3.418945	1.871636
3.419434	1.871676
3.419922	1.871733
3.420410	1.871630
3.420898	1.871765
3.421387	1.871708
3.421875	1.871713
3.422363	1.871615
3.422852	1.871728
3.423340	1.871341
3.423828	1.871468
3.424316	1.871893
3.424805	1.871771
3.425293	1.871053
3.425781	1.871372
3.426270	1.871635
3.426758	1.871479
3.427246	1.871492
3.427734	1.871522
3.428223	1.871295
3.428711	1.871341
3.429199	1.871352
3.429687	1.871393
3.430176	1.871207
3.430664	1.871345
3.431152	1.871505
3.431641	1.871513
3.432129	1.871335
3.432617	1.871372
3.433105	1.871363
3.433594	1.871680
3.434082	1.871487
3.434570	1.871324
3.435059	1.871292
3.435547	1.871212
3.436035	1.871433
3.436523	1.871323
3.437012	1.871401
3.437500	1.871370
3.437988	1.871544
3.438477	1.871643
3.438965	1.871376
3.439453	1.871286
3.439941	1.871660
3.440430	1.871632
3.440918	1.871457
3.441406	1.871525
3.441895	1.871514
3.442383	1.871387
3.442871	1.871694
3.443359	1.871228
3.443848	1.871147
3.444336	1.871217
3.444824	1.871267
3.445312	1.871297
3.445801	1.871295
3.446289	1.871102
3.446777	1.871087
3.447266	1.870883
3.447754	1.871368
3.448242	1.871520
3.448730	1.871228
3.449219	1.871250
3.449707	1.871533
3.450195	1.871628
3.450684	1.871630
3.451172	1.871739
3.451660	1.871359
3.452148	1.871516
3.452637	1.871910
3.453125	1.871796
3.453613	1.871442
3.454102	1.871562
3.454590	1.871841
3.455078	1.871666
3.455566	1.871552
3.456055	1.871477
3.456543	1.871668
3.457031	1.871596
3.457520	1.871742
3.458008	1.871524
3.458496	1.871544
3.458984	1.871481
3.459473	1.871688
3.459961	1.871585
3.460449	1.871680
3.460937	1.871436
3.461426	1.871666
3.461914	1.871512
3.462402	1.872026
3.462891	1.871863
3.463379	1.871917
3.463867	1.872298
3.464355	1.871891
3.464844	1.871829
3.465332	1.871886
3.465820	1.871927
3.466309	1.872211
3.466797	1.872079
3.467285	1.872166
3.467773	1.871929
3.468262	1.871938
3.468750	1.872040
3.469238	1.871900
3.469727	1.871826
3.470215	1.871779
3.470703	1.872071
3.471191	1.872077
3.471680	1.871927
3.472168	1.872008
3.472656	1.871835
3.473145	1.871857
3.473633	1.872095
3.474121	1.871882
3.474609	1.871500
3.475098	1.871790
3.475586	1.871934
3.476074	1.871691
3.476562	1.871482
3.477051	1.871761
3.477539	1.871747
3.478027	1.871978
3.478516	1.871938
3.479004	1.871539
3.479492	1.871805
3.479980	1.871935
3.480469	1.872058
3.480957	1.871892
3.481445	1.872065
3.481934	1.871736
3.482422	1.872016
3.482910	1.871865
3.483398	1.871899
3.483887	1.871762
3.484375	1.871996
3.484863	1.871924
3.485352	1.871715
3.485840	1.871613
3.486328	1.871786
3.486816	1.871639
3.487305	1.872234
3.487793	1.871840
3.488281	1.871784
3.488770	1.871906
3.489258	1.871802
3.489746	1.871863
3.490234	1.871751
3.490723	1.871966
3.491211	1.871832
3.491699	1.871778
3.492187	1.871740
3.492676	1.872093
3.493164	1.872060
3.493652	1.871962
3.494141	1.871875
3.494629	1.871495
3.495117	1.871766
3.495605	1.871880
3.496094	1.871693
3.496582	1.871684
3.497070	1.871654
3.497559	1.871636
3.498047	1.871876
3.498535	1.871855
3.499023	1.871511
3.499512	1.871652
3.500000	1.871672
3.500488	1.871724
3.500977	1.871607
3.501465	1.871500
3.501953	1.871543
3.502441	1.871632
3.502930	1.871758
3.503418	1.871426
3.503906	1.871341
3.504395	1.871680
3.504883	1.871659
3.505371	1.871334
3.505859	1.871410
3.506348	1.871857
3.506836	1.871553
3.507324	1.871747
3.507812	1.871557
3.508301	1.871580
3.508789	1.871544
3.509277	1.871624
3.509766	1.871552
3.510254	1.871714
3.510742	1.871444
3.511230	1.871619
3.511719	1.871386
3.512207	1.871736
3.512695	1.871535
3.513184	1.871447
3.513672	1.871226
3.514160	1.871349
3.514648	1.871272
3.515137	1.871400
3.515625	1.871386
3.516113	1.871123
3.516602	1.871390
3.517090	1.871214
3.517578	1.871325
3.518066	1.870894
3.518555	1.870871
3.519043	1.871261
3.519531	1.871313
3.520020	1.871067
3.520508	1.871052
3.520996	1.871213
3.521484	1.871096
3.521973	1.871539
3.522461	1.871384
3.522949	1.871181
3.523437	1.871238
3.523926	1.871323
3.524414	1.871290
3.524902	1.871142
3.525391	1.871099
3.525879	1.871164
3.526367	1.871125
3.526855	1.871210
3.527344	1.871185
3.527832	1.871104
3.528320	1.871049
3.528809	1.871230
3.529297	1.871373
3.529785	1.871433
3.530273	1.871406
3.530762	1.871301
3.531250	1.871482
3.531738	1.871431
3.532227	1.871531
3.532715	1.871315
3.533203	1.871607
3.533691	1.871533
3.534180	1.871541
3.534668	1.871258
3.535156	1.871497
3.535645	1.871499
3.536133	1.871586
3.536621	1.871591
3.537109	1.871440
3.537598	1.871465
3.538086	1.871462
3.538574	1.871616
3.539062	1.871232
3.539551	1.871320
3.540039	1.871704
3.540527	1.871605
3.541016	1.871655
3.541504	1.871565
3.541992	1.871577
3.542480	1.871864
3.542969	1.872201
3.543457	1.871777
3.543945	1.871724
3.544434	1.871846
3.544922	1.871776
3.545410	1.871919
3.545898	1.871776
3.546387	1.871685
3.546875	1.871599
3.547363	1.871441
3.547852	1.871667
3.548340	1.871863
3.548828	1.871555
3.549316	1.871531
3.549805	1.871731
3.550293	1.871756
3.550781	1.871702
3.551270	1.871735
3.551758	1.871615
3.552246	1.871779
3.552734	1.871882
3.553223	1.871682
3.553711	1.871374
3.554199	1.871472
3.554687	1.871833
3.555176	1.871643
3.555664	1.871610
3.556152	1.871342
3.556641	1.871492
3.557129	1.871562
3.557617	1.871675
3.558105	1.871197
3.558594	1.871273
3.559082	1.871485
3.559570	1.871511
3.560059	1.871457
3.560547	1.871361
3.561035	1.871179
3.561523	1.871383
3.562012	1.871570
3.562500	1.871524
3.562988	1.871281
3.563477	1.871488
3.563965	1.871660
3.564453	1.871383
3.564941	1.871325
3.565430	1.871293
3.565918	1.871482
3.566406	1.871815
3.566895	1.871776
3.567383	1.871491
3.567871	1.871469
3.568359	1.871487
3.568848	1.871697
3.569336	1.871505
3.569824	1.871529
3.570312	1.871611
3.570801	1.871579
3.571289	1.871478
3.571777	1.871835
3.572266	1.871585
3.572754	1.871857
3.573242	1.871766
3.573730	1.871830
3.574219	1.871659
3.574707	1.871825
3.575195	1.871778
3.575684	1.871875
3.576172	1.871713
3.576660	1.871963
3.577148	1.871481
3.577637	1.871502
3.578125	1.871694
3.578613	1.871564
3.579102	1.871493
3.579590	1.871586
3.580078	1.871749
3.580566	1.871789
3.581055	1.871765
3.581543	1.871700
3.582031	1.871762
3.582520	1.871827
3.583008	1.871771
3.583496	1.871616
3.583984	1.871501
3.584473	1.871844
3.584961	1.871863
3.585449	1.871688
3.585937	1.871548
3.586426	1.871821
3.586914	1.871631
3.587402	1.872085
3.587891	1.871827
3.588379	1.871722
3.588867	1.871743
3.589355	1.871934
3.589844	1.871782
3.590332	1.871664
3.590820	1.871658
3.591309	1.871663
3.591797	1.871564
3.592285	1.871672
3.592773	1.871596
3.593262	1.871539
3.593750	1.871495
3.594238	1.871621
3.594727	1.871379
3.595215	1.871663
3.595703	1.871601
3.596191	1.871497
3.596680	1.871713
3.597168	1.871641
3.597656	1.871600
3.598145	1.871569
3.598633	1.871559
3.599121	1.871556
3.599609	1.871605
3.600098	1.871686
3.600586	1.871535
3.601074	1.871434
3.601562	1.871745
3.602051	1.871611
3.602539	1.871605
3.603027	1.871444
3.603516	1.871558
3.604004	1.871408
3.604492	1.871913
3.604980	1.871838
3.605469	1.871637
3.605957	1.871543
3.606445	1.871776
3.606934	1.871617
3.607422	1.871426
3.607910	1.871489
3.608398	1.871825
3.608887	1.871653
3.609375	1.871858
3.609863	1.871679
3.610352	1.871804
3.610840	1.871594
3.611328	1.871802
3.611816	1.871782
3.612305	1.871839
3.612793	1.871535
3.613281	1.871838
3.613770	1.871797
3.614258	1.871622
3.614746	1.871456
3.615234	1.871735
3.615723	1.871531
3.616211	1.871863
3.616699	1.871725
3.617187	1.871609
3.617676	1.871760
3.618164	1.871599
3.618652	1.871710
3.619141	1.871630
3.619629	1.871684
3.620117	1.871730
3.620605	1.871603
3.621094	1.871699
3.621582	1.871622
3.622070	1.871459
3.622559	1.871697
3.623047	1.871652
3.623535	1.871571
3.624023	1.871580
3.624512	1.871617
3.625000	1.871557
3.625488	1.871794
3.625977	1.871801
3.626465	1.871622
3.626953	1.871803
3.627441	1.871840
3.627930	1.871782
3.628418	1.871440
3.628906	1.871675
3.629395	1.871974
3.629883	1.871874
3.630371	1.871844
3.630859	1.871887
3.631348	1.871837
3.631836	1.872106
3.632324	1.872278
3.632812	1.871863
3.633301	1.872099
3.633789	1.872246
3.634277	1.872115
3.634766	1.872069
3.635254	1.871946
3.635742	1.871766
3.636230	1.871904
3.636719	1.871724
3.637207	1.871967
3.637695	1.871724
3.638184	1.871992
3.638672	1.871846
3.639160	1.871818
3.639648	1.871758
3.640137	1.871793
3.640625	1.871883
3.641113	1.871808
3.641602	1.871743
3.642090	1.871700
3.642578	1.871849
3.643066	1.871733
3.643555	1.871701
3.644043	1.871755
3.644531	1.871609
3.645020	1.871643
3.645508	1.871502
3.645996	1.871451
3.646484	1.871365
3.646973	1.871397
3.647461	1.871694
3.647949	1.871420
3.648437	1.871376
3.648926	1.871218
3.649414	1.871146
3.649902	1.871267
3.650391	1.871210
3.650879	1.871050
3.651367	1.871053
3.651855	1.871340
3.652344	1.871347
3.652832	1.871055
3.653320	1.871066
3.653809	1.870969
3.654297	1.871020
3.654785	1.870973
3.655273	1.871088
3.655762	1.870889
3.656250	1.870913
3.656738	1.870822
3.657227	1.870996
3.657715	1.870733
3.658203	1.870962
3.658691	1.870739
3.659180	1.871129
3.659668	1.871036
3.660156	1.871063
3.660645	1.870945
3.661133	1.871193
3.661621	1.871162
3.662109	1.871062
3.662598	1.871102
3.663086	1.871017
3.663574	1.871066
3.664062	1.871074
3.664551	1.871027
3.665039	1.870865
3.665527	1.870813
3.666016	1.870897
3.666504	1.870853
3.666992	1.870823
3.667480	1.871204
3.667969	1.870811
3.668457	1.871185
3.668945	1.871187
3.669434	1.871177
3.669922	1.870978
3.670410	1.871229
3.670898	1.871196
3.671387	1.871293
3.671875	1.871260
3.672363	1.871399
3.672852	1.871115
3.673340	1.871255
3.673828	1.871467
3.674316	1.871351
3.674805	1.871086
3.675293	1.871375
3.675781	1.871400
3.676270	1.871378
3.676758	1.871398
3.677246	1.871303
3.677734	1.871244
3.678223	1.871466
3.678711	1.871419
3.679199	1.871049
3.679687	1.871065
3.680176	1.871444
3.680664	1.871301
3.681152	1.871330
3.681641	1.871212
3.682129	1.871229
3.682617	1.871518
3.683105	1.871802
3.683594	1.871364
3.684082	1.871216
3.684570	1.871564
3.685059	1.871540
3.685547	1.871658
3.686035	1.871436
3.686523	1.871498
3.687012	1.871417
3.687500	1.871599
3.687988	1.871444
3.688477	1.871155
3.688965	1.871480
3.689453	1.871546
3.689941	1.871375
3.690430	1.871497
3.690918	1.871297
3.691406	1.871305
3.691895	1.871453
3.692383	1.871592
3.692871	1.871469
3.693359	1.871325
3.693848	1.871743
3.694336	1.871603
3.694824	1.871785
3.695312	1.871503
3.695801	1.871314
3.696289	1.871480
3.696777	1.871493
3.697266	1.871336
3.697754	1.871104
3.698242	1.871532
3.698730	1.871356
3.699219	1.871189
3.699707	1.871003
3.700195	1.871292
3.700684	1.871190
3.701172	1.871533
3.701660	1.871416
3.702148	1.871308
3.702637	1.871330
3.703125	1.871499
3.703613	1.871456
3.704102	1.871544
3.704590	1.871473
3.705078	1.871572
3.705566	1.871431
3.706055	1.871487
3.706543	1.871596
3.707031	1.871547
3.707520	1.871457
3.708008	1.871495
3.708496	1.871870
3.708984	1.871854
3.709473	1.871805
3.709961	1.871642
3.710449	1.871459
3.710937	1.871794
3.711426	1.871895
3.711914	1.871769
3.712402	1.871702
3.712891	1.871773
3.713379	1.871771
3.713867	1.872057
3.714355	1.871851
3.714844	1.871823
3.715332	1.871931
3.715820	1.872102
3.716309	1.872264
3.716797	1.872163
3.717285	1.871916
3.717773	1.872024
3.718262	1.872198
3.718750	1.872195
3.719238	1.871817
3.719727	1.871711
3.720215	1.872121
3.720703	1.872051
3.721191	1.871980
3.721680	1.871801
3.722168	1.871907
3.722656	1.871926
3.723145	1.872385
3.723633	1.872032
3.724121	1.871632
3.724609	1.872025
3.725098	1.871982
3.725586	1.872110
3.726074	1.871815
3.726562	1.871782
3.727051	1.871736
3.727539	1.871843
3.728027	1.871751
3.728516	1.871390
3.729004	1.871508
3.729492	1.871645
3.729980	1.871612
3.730469	1.871545
3.730957	1.871487
3.731445	1.871543
3.731934	1.871541
3.732422	1.871602
3.732910	1.871372
3.733398	1.871347
3.733887	1.871575
3.734375	1.871649
3.734863	1.871466
3.735352	1.871326
3.735840	1.871109
3.736328	1.871273
3.736816	1.871359
3.737305	1.871500
3.737793	1.871193
3.738281	1.871295
3.738770	1.871286
3.739258	1.871165
3.739746	1.871106
3.740234	1.870956
3.740723	1.871002
3.741211	1.871076
3.741699	1.871070
3.742187	1.870999
3.742676	1.870883
3.743164	1.870752
3.743652	1.871000
3.744141	1.871009
3.744629	1.871110
3.745117	1.870581
3.745605	1.870965
3.746094	1.871052
3.746582	1.870836
3.747070	1.870967
3.747559	1.870875
3.748047	1.870951
3.748535	1.870966
3.749023	1.870865
3.749512	1.870833
3.750000	1.870859
3.750488	1.870994
3.750977	1.871007
3.751465	1.870979
3.751953	1.870952
3.752441	1.870966
3.752930	1.870944
3.753418	1.870839
3.753906	1.870844
3.754395	1.870917
3.754883	1.870768
3.755371	1.870760
3.755859	1.870712
3.756348	1.870802
3.756836	1.870813
3.757324	1.870667
3.757812	1.870902
3.758301	1.871014
3.758789	1.871018
3.759277	1.870847
3.759766	1.871051
3.760254	1.870948
3.760742	1.871001
3.761230	1.871007
3.761719	1.871210
3.762207	1.871057
3.762695	1.871184
3.763184	1.870935
3.763672	1.870896
3.764160	1.871088
3.764648	1.871063
3.765137	1.871140
3.765625	1.871028
3.766113	1.871218
3.766602	1.870995
3.767090	1.871076
3.767578	1.871106
3.768066	1.870956
3.768555	1.871147
3.769043	1.871487
3.769531	1.871250
3.770020	1.871278
3.770508	1.871021
3.770996	1.870988
3.771484	1.871064
3.771973	1.871157
3.772461	1.871331
3.772949	1.871323
3.773437	1.871411
3.773926	1.871223
3.774414	1.871266
3.774902	1.871212
3.775391	1.871260
3.775879	1.871124
3.776367	1.870965
3.776855	1.871236
3.777344	1.871375
3.777832	1.871104
3.778320	1.870947
3.778809	1.871162
3.779297	1.871115
3.779785	1.871544
3.780273	1.871470
3.780762	1.871192
3.781250	1.871342
3.781738	1.871613
3.782227	1.871585
3.782715	1.871555
3.783203	1.871508
3.783691	1.871481
3.784180	1.871455
3.784668	1.871343
3.785156	1.871513
3.785645	1.871167
3.786133	1.871373
3.786621	1.871394
3.787109	1.871303
3.787598	1.871362
3.788086	1.871381
3.788574	1.871293
3.789062	1.871519
3.789551	1.871520
3.790039	1.871416
3.790527	1.871379
3.791016	1.871495
3.791504	1.871647
3.791992	1.871527
3.792480	1.871538
3.792969	1.871527
3.793457	1.871586
3.793945	1.871543
3.794434	1.871566
3.794922	1.871441
3.795410	1.871808
3.795898	1.871659
3.796387	1.871636
3.796875	1.871478
3.797363	1.871077
3.797852	1.871689
3.798340	1.871587
3.798828	1.871445
3.799316	1.871515
3.799805	1.871386
3.800293	1.871428
3.800781	1.871658
3.801270	1.871630
3.801758	1.871344
3.802246	1.871657
3.802734	1.871717
3.803223	1.871782
3.803711	1.871755
3.804199	1.871717
3.804687	1.871797
3.805176	1.871830
3.805664	1.871680
3.806152	1.871603
3.806641	1.871583
3.807129	1.871888
3.807617	1.871954
3.808105	1.871709
3.808594	1.871787
3.809082	1.871707
3.809570	1.871885
3.810059	1.872162
3.810547	1.872048
3.811035	1.871985
3.811523	1.871945
3.812012	1.871937
3.812500	1.872064
3.812988	1.872031
3.813477	1.871967
3.813965	1.871821
3.814453	1.871965
3.814941	1.871936
3.815430	1.871896
3.815918	1.871887
3.816406	1.871916
3.816895	1.871984
3.817383	1.871736
3.817871	1.872027
3.818359	1.872035
3.818848	1.872035
3.819336	1.871888
3.819824	1.871732
3.820312	1.871793
3.820801	1.872172
3.821289	1.872109
3.821777	1.871891
3.822266	1.871907
3.822754	1.871734
3.823242	1.871799
3.823730	1.871860
3.824219	1.871726
3.824707	1.871622
3.825195	1.871798
3.825684	1.871858
3.826172	1.871752
3.826660	1.871736
3.827148	1.871703
3.827637	1.871848
3.828125	1.871963
3.828613	1.872067
3.829102	1.872084
3.829590	1.871904
3.830078	1.871939
3.830566	1.871913
3.831055	1.871957
3.831543	1.871915
3.832031	1.871780
3.832520	1.871913
3.833008	1.871860
3.833496	1.871730
3.833984	1.871802
3.834473	1.871684
3.834961	1.871790
3.835449	1.871688
3.835937	1.871417
3.836426	1.871616
3.836914	1.871544
3.837402	1.871979
3.837891	1.871658
3.838379	1.871810
3.838867	1.871721
3.839355	1.871669
3.839844	1.871639
3.840332	1.871636
3.840820	1.871838
3.841309	1.871956
3.841797	1.871595
3.842285	1.871793
3.842773	1.871890
3.843262	1.871849
3.843750	1.872170
3.844238	1.871959
3.844727	1.871971
3.845215	1.871921
3.845703	1.871853
3.846191	1.871783
3.846680	1.871628
3.847168	1.871854
3.847656	1.871948
3.848145	1.871705
3.848633	1.871912
3.849121	1.871777
3.849609	1.871890
3.850098	1.871926
3.850586	1.872003
3.851074	1.872054
3.851562	1.872084
3.852051	1.871962
3.852539	1.871993
3.853027	1.872164
3.853516	1.872046
3.854004	1.872189
3.854492	1.871965
3.854980	1.871907
3.855469	1.871790
3.855957	1.871781
3.856445	1.871855
3.856934	1.871727
3.857422	1.871974
3.857910	1.871848
3.858398	1.871827
3.858887	1.871801
3.859375	1.871776
3.859863	1.871719
3.860352	1.871702
3.860840	1.871759
3.861328	1.871736
3.861816	1.871724
3.862305	1.871834
3.862793	1.871906
3.863281	1.871741
3.863770	1.871701
3.864258	1.871686
3.864746	1.871663
3.865234	1.871620
3.865723	1.871656
3.866211	1.871658
3.866699	1.871873
3.867187	1.871678
3.867676	1.871774
3.868164	1.871586
3.868652	1.871675
3.869141	1.871646
3.869629	1.871576
3.870117	1.871441
3.870605	1.871652
3.871094	1.871410
3.871582	1.871555
3.872070	1.871798
3.872559	1.871736
3.873047	1.871892
3.873535	1.871555
3.874023	1.871507
3.874512	1.871401
3.875000	1.871558
3.875488	1.871429
3.875977	1.871540
3.876465	1.871492
3.876953	1.871518
3.877441	1.871269
3.877930	1.871562
3.878418	1.871295
3.878906	1.871459
3.879395	1.871343
3.879883	1.871614
3.880371	1.871245
3.880859	1.871640
3.881348	1.871428
3.881836	1.871438
3.882324	1.871668
3.882812	1.871509
3.883301	1.871346
3.883789	1.871448
3.884277	1.871444
3.884766	1.871455
3.885254	1.871306
3.885742	1.871173
3.886230	1.871386
3.886719	1.871508
3.887207	1.871463
3.887695	1.871500
3.888184	1.871427
3.888672	1.871486
3.889160	1.871184
3.889648	1.871289
3.890137	1.871371
3.890625	1.871380
3.891113	1.871030
3.891602	1.871019
3.892090	1.871240
3.892578	1.871129
3.893066	1.871768
3.893555	1.871273
3.894043	1.871280
3.894531	1.871325
3.895020	1.871560
3.895508	1.871303
3.895996	1.871491
3.896484	1.871485
3.896973	1.871630
3.897461	1.871419
3.897949	1.871624
3.898437	1.871508
3.898926	1.871550
3.899414	1.871646
3.899902	1.871628
3.900391	1.871572
3.900879	1.871538
3.901367	1.871575
3.901855	1.871492
3.902344	1.871637
3.902832	1.871568
3.903320	1.871529
3.903809	1.871636
3.904297	1.871513
3.904785	1.871667
3.905273	1.871426
3.905762	1.871575
3.906250	1.871359
3.906738	1.871316
3.907227	1.871529
3.907715	1.871872
3.908203	1.871521
3.908691	1.871417
3.909180	1.871456
3.909668	1.871674
3.910156	1.871591
3.910645	1.871650
3.911133	1.871546
3.911621	1.871632
3.912109	1.871563
3.912598	1.871328
3.913086	1.871483
3.913574	1.871641
3.914062	1.871926
3.914551	1.871577
3.915039	1.871603
3.915527	1.871616
3.916016	1.871649
3.916504	1.871601
3.916992	1.871582
3.917480	1.871542
3.917969	1.871533
3.918457	1.871613
3.918945	1.871481
3.919434	1.871251
3.919922	1.871564
3.920410	1.871641
3.920898	1.871364
3.921387	1.871369
3.921875	1.871433
3.922363	1.871380
3.922852	1.871745
3.923340	1.871613
3.923828	1.871190
3.924316	1.871315
3.924805	1.871619
3.925293	1.871556
3.925781	1.871471
3.926270	1.871365
3.926758	1.871470
3.927246	1.871281
3.927734	1.871113
3.928223	1.871484
3.928711	1.871779
3.929199	1.871249
3.929687	1.871259
3.930176	1.871550
3.930664	1.871447
3.931152	1.871182
3.931641	1.871480
3.932129	1.871240
3.932617	1.871354
3.933105	1.871246
3.933594	1.871099
3.934082	1.870824
3.934570	1.871157
3.935059	1.871124
3.935547	1.871019
3.936035	1.871024
3.936523	1.870896
3.937012	1.870908
3.937500	1.871307
3.937988	1.871240
3.938477	1.870899
3.938965	1.871265
3.939453	1.871135
3.939941	1.871287
3.940430	1.871231
3.940918	1.871142
3.941406	1.871107
3.941895	1.871245
3.942383	1.871391
3.942871	1.871356
3.943359	1.871222
3.943848	1.871311
3.944336	1.871241
3.944824	1.871339
3.945312	1.871261
3.945801	1.870900
3.946289	1.871368
3.946777	1.870996
3.947266	1.871076
3.947754	1.870996
3.948242	1.871135
3.948730	1.870763
3.949219	1.871074
3.949707	1.870951
3.950195	1.871250
3.950684	1.871267
3.951172	1.870812
3.951660	1.870957
3.952148	1.871220
3.952637	1.871167
3.953125	1.871037
3.953613	1.871079
3.954102	1.871062
3.954590	1.871067
3.955078	1.871030
3.955566	1.870991
3.956055	1.870541
3.956543	1.871260
3.957031	1.871110
3.957520	1.871044
3.958008	1.870944
3.958496	1.870941
3.958984	1.870798
3.959473	1.871090
3.959961	1.870878
3.960449	1.870790
3.960937	1.870927
3.961426	1.870979
3.961914	1.870777
3.962402	1.870838
3.962891	1.870916
3.963379	1.870780
3.963867	1.870791
3.964355	1.870782
3.964844	1.870637
3.965332	1.870797
3.965820	1.870600
3.966309	1.870783
3.966797	1.870553
3.967285	1.870868
3.967773	1.870525
3.968262	1.870935
3.968750	1.870782
3.969238	1.870989
3.969727	1.871047
3.970215	1.870875
3.970703	1.870922
3.971191	1.870844
3.971680	1.870983
3.972168	1.870987
3.972656	1.870999
3.973145	1.870985
3.973633	1.871036
3.974121	1.871210
3.974609	1.870935
3.975098	1.870899
3.975586	1.870983
3.976074	1.871017
3.976562	1.871027
3.977051	1.870853
3.977539	1.871331
3.978027	1.870993
3.978516	1.871326
3.979004	1.871297
3.979492	1.871284
3.979980	1.871027
3.980469	1.871143
3.980957	1.871064
3.981445	1.871104
3.981934	1.871117
3.982422	1.871145
3.982910	1.870922
3.983398	1.870989
3.983887	1.871438
3.984375	1.871267
3.984863	1.870976
3.985352	1.871169
3.985840	1.871207
3.986328	1.871383
3.986816	1.871225
3.987305	1.871320
3.987793	1.871387
3.988281	1.871370
3.988770	1.871411
3.989258	1.871242
3.989746	1.871370
3.990234	1.871577
3.990723	1.871414
3.991211	1.871389
3.991699	1.871411
3.992187	1.871500
3.992676	1.871499
3.993164	1.871611
3.993652	1.871423
3.994141	1.871344
3.994629	1.871289
3.995117	1.871519
3.995605	1.871397
3.996094	1.871486
3.996582	1.871362
3.997070	1.871497
3.997559	1.871364
3.998047	1.871547
3.998535	1.871344
3.999023	1.871512
3.999512	1.871516
4.000000	1.871603
4.000488	1.871550
4.000977	1.871557
4.001465	1.871594
4.001953	1.871674
4.002441	1.871928
4.002930	1.871751
4.003418	1.871653
4.003906	1.871597
4.004395	1.871617
4.004883	1.871785
4.005371	1.871524
4.005859	1.871606
4.006348	1.871457
4.006836	1.871522
4.007324	1.871626
4.007812	1.871708
4.008301	1.871472
4.008789	1.871516
4.009277	1.871458
4.009766	1.871447
4.010254	1.871538
4.010742	1.871504
4.011230	1.871506
4.011719	1.871495
4.012207	1.871638
4.012695	1.871514
4.013184	1.871325
4.013672	1.871571
4.014160	1.871585
4.014648	1.871627
4.015137	1.871635
4.015625	1.871329
4.016113	1.871600
4.016602	1.871611
4.017090	1.871632
4.017578	1.871476
4.018066	1.871525
4.018555	1.871344
4.019043	1.871556
4.019531	1.871700
4.020020	1.871479
4.020508	1.871411
4.020996	1.871694
4.021484	1.871667
4.021973	1.871690
4.022461	1.871686
4.022949	1.871733
4.023437	1.871787
4.023926	1.871703
4.024414	1.871686
4.024902	1.871777
4.025391	1.871638
4.025879	1.871533
4.026367	1.871459
4.026855	1.871339
4.027344	1.871481
4.027832	1.871473
4.028320	1.871418
4.028809	1.871528
4.029297	1.871602
4.029785	1.871669
4.030273	1.871617
4.030762	1.871738
4.031250	1.871574
4.031738	1.871377
4.032227	1.871866
4.032715	1.871614
4.033203	1.871544
4.033691	1.871575
4.034180	1.871553
4.034668	1.871613
4.035156	1.871581
4.035645	1.871498
4.036133	1.871414
4.036621	1.871479
4.037109	1.871680
4.037598	1.871550
4.038086	1.871382
4.038574	1.871236
4.039062	1.871184
4.039551	1.871208
4.040039	1.871293
4.040527	1.871520
4.041016	1.871382
4.041504	1.871154
4.041992	1.871390
4.042480	1.871765
4.042969	1.871658
4.043457	1.871690
4.043945	1.871428
4.044434	1.871404
4.044922	1.871601
4.045410	1.871578
4.045898	1.871373
4.046387	1.871290
4.046875	1.871675
4.047363	1.871384
4.047852	1.871309
4.048340	1.871220
4.048828	1.871126
4.049316	1.871490
4.049805	1.871662
4.050293	1.871351
4.050781	1.871250
4.051270	1.871262
4.051758	1.871265
4.052246	1.871464
4.052734	1.871331
4.053223	1.871340
4.053711	1.871262
4.054199	1.870985
4.054687	1.871139
4.055176	1.871605
4.055664	1.871074
4.056152	1.870833
4.056641	1.871162
4.057129	1.871275
4.057617	1.871088
4.058105	1.871015
4.058594	1.870934
4.059082	1.870859
4.059570	1.870964
4.060059	1.870955
4.060547	1.870658
4.061035	1.870628
4.061523	1.870880
4.062012	1.870822
4.062500	1.870633
4.062988	1.870576
4.063477	1.870619
4.063965	1.870811
4.064453	1.871181
4.064941	1.870481
4.065430	1.870625
4.065918	1.870908
4.066406	1.870924
4.066895	1.870869
4.067383	1.870818
4.067871	1.870791
4.068359	1.870790
4.068848	1.870746
4.069336	1.870823
4.069824	1.870710
4.070312	1.870796
4.070801	1.870658
4.071289	1.870919
4.071777	1.870747
4.072266	1.871177
4.072754	1.870813
4.073242	1.871142
4.073730	1.871210
4.074219	1.871108
4.074707	1.871045
4.075195	1.870986
4.075684	1.871021
4.076172	1.871329
4.076660	1.871163
4.077148	1.871259
4.077637	1.870957
4.078125	1.871205
4.078613	1.871196
4.079102	1.871179
4.079590	1.871157
4.080078	1.871189
4.080566	1.871146
4.081055	1.871214
4.081543	1.871417
4.082031	1.871267
4.082520	1.871283
4.083008	1.871156
4.083496	1.871140
4.083984	1.871106
4.084473	1.871131
4.084961	1.871201
4.085449	1.871355
4.085937	1.870992
4.086426	1.870871
4.086914	1.871251
4.087402	1.871072
4.087891	1.871030
4.088379	1.871016
4.088867	1.871084
4.089355	1.871182
4.089844	1.871190
4.090332	1.871033
4.090820	1.871138
4.091309	1.871154
4.091797	1.871031
4.092285	1.871197
4.092773	1.871176
4.093262	1.871414
4.093750	1.871366
4.094238	1.871155
4.094727	1.871062
4.095215	1.870809
4.095703	1.870885
4.096191	1.871075
4.096680	1.871037
4.097168	1.870849
4.097656	1.870911
4.098145	1.870955
4.098633	1.870775
4.099121	1.870863
4.099609	1.870795
4.100098	1.870717
4.100586	1.871046
4.101074	1.871051
4.101562	1.870900
4.102051	1.870883
4.102539	1.870593
4.103027	1.870747
4.103516	1.870864
4.104004	1.870656
4.104492	1.870570
4.104980	1.870464
4.105469	1.870212
4.105957	1.870511
4.106445	1.870778
4.106934	1.870421
4.107422	1.870528
4.107910	1.870403
4.108398	1.870551
4.108887	1.870683
4.109375	1.870655
4.109863	1.870667
4.110352	1.870776
4.110840	1.870852
4.111328	1.870828
4.111816	1.870726
4.112305	1.870909
4.112793	1.870844
4.113281	1.870921
4.113770	1.870919
4.114258	1.870900
4.114746	1.871000
4.115234	1.871102
4.115723	1.871134
4.116211	1.870999
4.116699	1.871198
4.117187	1.871103
4.117676	1.871012
4.118164	1.871030
4.118652	1.871165
4.119141	1.871492
4.119629	1.871243
4.120117	1.871382
4.120605	1.871160
4.121094	1.871324
4.121582	1.871164
4.122070	1.871391
4.122559	1.871442
4.123047	1.871246
4.123535	1.871110
4.124023	1.871349
4.124512	1.871426
4.125000	1.871348
4.125488	1.871340
4.125977	1.871187
4.126465	1.871066
4.126953	1.870985
4.127441	1.871157
4.127930	1.871060
4.128418	1.870852
4.128906	1.870856
4.129395	1.870833
4.129883	1.871232
4.130371	1.871137
4.130859	1.870940
4.131348	1.870866
4.131836	1.870869
4.132324	1.870748
4.132812	1.870656
4.133301	1.870995
4.133789	1.871145
4.134277	1.870587
4.134766	1.870687
4.135254	1.870995
4.135742	1.871007
4.136230	1.871040
4.136719	1.870877
4.137207	1.870814
4.137695	1.870996
4.138184	1.871077
4.138672	1.870882
4.139160	1.870914
4.139648	1.870922
4.140137	1.870997
4.140625	1.870759
4.141113	1.870858
4.141602	1.870727
4.142090	1.870855
4.142578	1.871009
4.143066	1.870862
4.143555	1.870645
4.144043	1.870803
4.144531	1.870919
4.145020	1.870962
4.145508	1.871081
4.145996	1.870884
4.146484	1.870832
4.146973	1.870931
4.147461	1.870898
4.147949	1.870683
4.148437	1.870716
4.148926	1.871155
4.149414	1.870976
4.149902	1.870720
4.150391	1.870721
4.150879	1.870736
4.151367	1.870837
4.151855	1.871209
4.152344	1.870939
4.152832	1.870703
4.153320	1.871047
4.153809	1.871009
4.154297	1.870940
4.154785	1.870888
4.155273	1.870786
4.155762	1.870763
4.156250	1.870811
4.156738	1.870828
4.157227	1.870811
4.157715	1.870759
4.158203	1.871118
4.158691	1.870816
4.159180	1.870898
4.159668	1.870819
4.160156	1.870859
4.160645	1.870993
4.161133	1.870977
4.161621	1.870858
4.162109	1.870902
4.162598	1.871196
4.163086	1.870983
4.163574	1.871330
4.164062	1.871106
4.164551	1.871029
4.165039	1.871023
4.165527	1.870962
4.166016	1.870936
4.166504	1.870921
4.166992	1.871122
4.167480	1.871237
4.167969	1.870949
4.168457	1.871152
4.168945	1.870938
4.169434	1.871044
4.169922	1.870934
4.170410	1.871051
4.170898	1.870925
4.171387	1.871230
4.171875	1.870943
4.172363	1.871353
4.172852	1.871173
4.173340	1.871050
4.173828	1.871298
4.174316	1.871135
4.174805	1.870994
4.175293	1.870842
4.175781	1.870885
4.176270	1.870816
4.176758	1.870834
4.177246	1.870741
4.177734	1.870957
4.178223	1.870882
4.178711	1.871038
4.179199	1.870879
4.179687	1.870962
4.180176	1.870911
4.180664	1.871125
4.181152	1.871110
4.181641	1.871148
4.182129	1.870843
4.182617	1.871226
4.183105	1.871128
4.183594	1.871028
4.184082	1.871109
4.184570	1.871109
4.185059	1.871045
4.185547	1.871249
4.186035	1.871001
4.186523	1.870882
4.187012	1.870971
4.187500	1.871049
4.187988	1.871065
4.188477	1.871107
4.188965	1.871085
4.189453	1.871201
4.189941	1.870972
4.190430	1.871166
4.190918	1.871080
4.191406	1.871106
4.191895	1.871139
4.192383	1.871489
4.192871	1.871142
4.193359	1.871286
4.193848	1.871322
4.194336	1.871236
4.194824	1.871267
4.195312	1.871257
4.195801	1.871307
4.196289	1.871179
4.196777	1.871056
4.197266	1.871207
4.197754	1.871125
4.198242	1.871083
4.198730	1.871071
4.199219	1.871364
4.199707	1.871057
4.200195	1.870922
4.200684	1.871090
4.201172	1.871087
4.201660	1.871095
4.202148	1.871029
4.202637	1.870907
4.203125	1.870883
4.203613	1.871045
4.204102	1.871053
4.204590	1.871121
4.205078	1.870926
4.205566	1.870886
4.206055	1.870953
4.206543	1.871003
4.207031	1.870797
4.207520	1.870835
4.208008	1.870938
4.208496	1.871025
4.208984	1.871121
4.209473	1.870863
4.209961	1.870957
4.210449	1.870999
4.210937	1.871009
4.211426	1.870951
4.211914	1.871011
4.212402	1.871038
4.212891	1.871202
4.213379	1.870923
4.213867	1.871102
4.214355	1.870716
4.214844	1.870983
4.215332	1.870859
4.215820	1.871041
4.216309	1.870782
4.216797	1.870947
4.217285	1.871046
4.217773	1.870943
4.218262	1.871156
4.218750	1.870992
4.219238	1.871076
4.219727	1.871012
4.220215	1.871010
4.220703	1.870932
4.221191	1.871007
4.221680	1.871009
4.222168	1.871043
4.222656	1.870955
4.223145	1.871002
4.223633	1.870820
4.224121	1.870946
4.224609	1.871002
4.225098	1.870957
4.225586	1.870697
4.226074	1.871023
4.226562	1.870926
4.227051	1.871047
4.227539	1.871073
4.228027	1.871062
4.228516	1.871116
4.229004	1.870948
4.229492	1.870883
4.229980	1.870964
4.230469	1.870962
4.230957	1.871116
4.231445	1.871019
4.231934	1.871026
4.232422	1.870943
4.232910	1.870893
4.233398	1.870855
4.233887	1.870949
4.234375	1.870875
4.234863	1.870848
4.235352	1.870743
4.235840	1.870642
4.236328	1.870946
4.236816	1.870734
4.237305	1.870947
4.237793	1.870845
4.238281	1.870895
4.238770	1.870756
4.239258	1.870778
4.239746	1.870882
4.240234	1.870986
4.240723	1.870900
4.241211	1.871003
4.241699	1.870749
4.242187	1.871001
4.242676	1.871072
4.243164	1.870990
4.243652	1.870844
4.244141	1.870941
4.244629	1.871012
4.245117	1.870985
4.245605	1.871038
4.246094	1.870974
4.246582	1.871008
4.247070	1.870811
4.247559	1.870656
4.248047	1.871124
4.248535	1.871200
4.249023	1.870728
4.249512	1.870873
4.250000	1.871077
4.250488	1.871155
4.250977	1.871173
4.251465	1.871176
4.251953	1.871135
4.252441	1.871215
4.252930	1.871224
4.253418	1.871089
4.253906	1.870963
4.254395	1.871153
4.254883	1.871095
4.255371	1.870960
4.255859	1.870681
4.256348	1.871192
4.256836	1.870985
4.257324	1.871131
4.257812	1.871074
4.258301	1.870959
4.258789	1.871121
4.259277	1.871117
4.259766	1.871159
4.260254	1.871304
4.260742	1.871093
4.261230	1.871101
4.261719	1.870945
4.262207	1.871032
4.262695	1.871402
4.263184	1.871376
4.263672	1.871088
4.264160	1.871078
4.264648	1.871112
4.265137	1.871185
4.265625	1.871327
4.266113	1.871081
4.266602	1.871131
4.267090	1.871060
4.267578	1.871062
4.268066	1.871001
4.268555	1.870867
4.269043	1.871087
4.269531	1.871028
4.270020	1.870869
4.270508	1.870830
4.270996	1.871185
4.271484	1.870834
4.271973	1.870845
4.272461	1.870857
4.272949	1.870965
4.273437	1.871066
4.273926	1.871106
4.274414	1.870905
4.274902	1.870805
4.275391	1.870726
4.275879	1.870776
4.276367	1.870837
4.276855	1.870780
4.277344	1.870616
4.277832	1.870662
4.278320	1.870702
4.278809	1.870707
4.279297	1.870511
4.279785	1.870632
4.280273	1.870747
4.280762	1.870635
4.281250	1.870745
4.281738	1.870768
4.282227	1.870842
4.282715	1.870877
4.283203	1.870806
4.283691	1.870941
4.284180	1.870998
4.284668	1.870948
4.285156	1.870975
4.285645	1.870787
4.286133	1.870830
4.286621	1.870988
4.287109	1.870915
4.287598	1.870818
4.288086	1.870969
4.288574	1.870869
4.289062	1.870878
4.289551	1.870885
4.290039	1.870993
4.290527	1.871196
4.291016	1.870992
4.291504	1.871201
4.291992	1.871015
4.292480	1.870957
4.292969	1.870846
4.293457	1.870947
4.293945	1.871500
4.294434	1.871192
4.294922	1.870877
4.295410	1.871010
4.295898	1.871012
4.296387	1.871121
4.296875	1.871121
4.297363	1.871054
4.297852	1.871048
4.298340	1.871169
4.298828	1.871281
4.299316	1.871115
4.299805	1.870954
4.300293	1.871259
4.300781	1.871191
4.301270	1.871012
4.301758	1.870975
4.302246	1.871020
4.302734	1.870994
4.303223	1.871545
4.303711	1.871015
4.304199	1.870877
4.304687	1.871005
4.305176	1.871219
4.305664	1.870852
4.306152	1.871089
4.306641	1.870938
4.307129	1.871043
4.307617	1.870941
4.308105	1.871081
4.308594	1.871034
4.309082	1.871014
4.309570	1.871211
4.310059	1.871027
4.310547	1.870884
4.311035	1.870974
4.311523	1.870954
4.312012	1.871126
4.312500	1.871141
4.312988	1.870879
4.313477	1.870896
4.313965	1.870738
4.314453	1.870915
4.314941	1.870711
4.315430	1.870832
4.315918	1.870727
4.316406	1.870848
4.316895	1.870545
4.317383	1.870910
4.317871	1.870752
4.318359	1.870768
4.318848	1.870808
4.319336	1.870789
4.319824	1.870775
4.320312	1.870684
4.320801	1.870642
4.321289	1.870677
4.321777	1.870615
4.322266	1.870664
4.322754	1.870528
4.323242	1.870427
4.323730	1.870650
4.324219	1.870384
4.324707	1.870318
4.325195	1.870467
4.325684	1.870514
4.326172	1.870283
4.326660	1.870674
4.327148	1.870662
4.327637	1.870792
4.328125	1.870659
4.328613	1.870653
4.329102	1.870695
4.329590	1.870432
4.330078	1.870849
4.330566	1.870859
4.331055	1.870650
4.331543	1.870525
4.332031	1.870765
4.332520	1.870634
4.333008	1.871019
4.333496	1.870703
4.333984	1.870675
4.334473	1.870599
4.334961	1.870827
4.335449	1.870441
4.335937	1.870424
4.336426	1.870502
4.336914	1.870476
4.337402	1.870365
4.337891	1.870425
4.338379	1.870292
4.338867	1.870204
4.339355	1.870374
4.339844	1.870364
4.340332	1.870233
4.340820	1.870304
4.341309	1.870648
4.341797	1.870373
4.342285	1.870700
4.342773	1.870476
4.343262	1.870717
4.343750	1.870518
4.344238	1.870758
4.344727	1.870702
4.345215	1.870699
4.345703	1.870349
4.346191	1.870658
4.346680	1.870602
4.347168	1.870704
4.347656	1.870534
4.348145	1.870646
4.348633	1.870926
4.349121	1.870763
4.349609	1.870749
4.350098	1.870630
4.350586	1.870725
4.351074	1.870710
4.351562	1.870883
4.352051	1.870692
4.352539	1.870900
4.353027	1.870967
4.353516	1.870952
4.354004	1.871172
4.354492	1.870932
4.354980	1.870957
4.355469	1.870864
4.355957	1.870969
4.356445	1.870774
4.356934	1.870702
4.357422	1.870809
4.357910	1.871022
4.358398	1.871036
4.358887	1.870927
4.359375	1.870792
4.359863	1.870980
4.360352	1.871102
4.360840	1.871068
4.361328	1.870836
4.361816	1.871052
4.362305	1.871082
4.362793	1.871266
4.363281	1.871120
4.363770	1.871052
4.364258	1.871137
4.364746	1.871161
4.365234	1.871143
4.365723	1.870986
4.366211	1.871262
4.366699	1.870910
4.367187	1.870980
4.367676	1.871431
4.368164	1.871065
4.368652	1.871160
4.369141	1.871135
4.369629	1.870994
4.370117	1.871256
4.370605	1.871187
4.371094	1.870977
4.371582	1.870807
4.372070	1.871259
4.372559	1.871380
4.373047	1.871071
4.373535	1.871115
4.374023	1.871033
4.374512	1.871200
4.375000	1.870988
4.375488	1.871122
4.375977	1.870859
4.376465	1.870969
4.376953	1.871099
4.377441	1.871406
4.377930	1.871206
4.378418	1.871245
4.378906	1.871205
4.379395	1.870951
4.379883	1.870923
4.380371	1.871178
4.380859	1.870924
4.381348	1.870589
4.381836	1.870930
4.382324	1.871137
4.382812	1.870918
4.383301	1.870774
4.383789	1.870925
4.384277	1.870799
4.384766	1.871187
4.385254	1.871293
4.385742	1.870542
4.386230	1.870940
4.386719	1.871113
4.387207	1.871245
4.387695	1.871045
4.388184	1.871165
4.388672	1.870969
4.389160	1.871220
4.389648	1.871239
4.390137	1.871058
4.390625	1.870902
4.391113	1.871236
4.391602	1.871244
4.392090	1.871085
4.392578	1.871039
4.393066	1.871026
4.393555	1.871013
4.394043	1.871683
4.394531	1.871407
4.395020	1.871226
4.395508	1.871151
4.395996	1.870999
4.396484	1.871445
4.396973	1.871448
4.397461	1.871245
4.397949	1.871221
4.398437	1.871373
4.398926	1.871429
4.399414	1.871484
4.399902	1.871529
4.400391	1.871190
4.400879	1.871477
4.401367	1.871470
4.401855	1.871497
4.402344	1.871488
4.402832	1.871318
4.403320	1.871085
4.403809	1.871316
4.404297	1.871252
4.404785	1.871043
4.405273	1.870993
4.405762	1.871159
4.406250	1.871040
4.406738	1.871031
4.407227	1.870853
4.407715	1.870933
4.408203	1.870839
4.408691	1.871026
4.409180	1.870875
4.409668	1.870643
4.410156	1.870861
4.410645	1.870832
4.411133	1.870680
4.411621	1.870663
4.412109	1.870699
4.412598	1.870775
4.413086	1.870802
4.413574	1.870580
4.414062	1.870486
4.414551	1.870540
4.415039	1.870780
4.415527	1.870540
4.416016	1.870601
4.416504	1.870564
4.416992	1.870482
4.417480	1.870673
4.417969	1.870941
4.418457	1.870562
4.418945	1.870744
4.419434	1.870609
4.419922	1.870857
4.420410	1.870701
4.420898	1.870589
4.421387	1.870508
4.421875	1.870861
4.422363	1.870772
4.422852	1.870809
4.423340	1.870379
4.423828	1.870897
4.424316	1.870841
4.424805	1.870623
4.425293	1.870553
4.425781	1.870487
4.426270	1.870704
4.426758	1.871220
4.427246	1.871049
4.427734	1.870696
4.428223	1.870553
4.428711	1.870541
4.429199	1.870607
4.429687	1.870737
4.430176	1.870624
4.430664	1.870706
4.431152	1.870578
4.431641	1.870830
4.432129	1.870853
4.432617	1.870838
4.433105	1.870673
4.433594	1.871013
4.434082	1.870915
4.434570	1.870906
4.435059	1.871264
4.435547	1.871081
4.436035	1.871201
4.436523	1.871036
4.437012	1.870953
4.437500	1.870766
4.437988	1.870711
4.438477	1.870856
4.438965	1.870772
4.439453	1.870440
4.439941	1.870435
4.440430	1.870612
4.440918	1.870635
4.441406	1.871104
4.441895	1.870804
4.442383	1.870579
4.442871	1.870829
4.443359	1.870883
4.443848	1.870904
4.444336	1.870860
4.444824	1.870750
4.445312	1.870819
4.445801	1.870722
4.446289	1.870751
4.446777	1.870900
4.447266	1.870834
4.447754	1.870786
4.448242	1.870891
4.448730	1.870799
4.449219	1.870637
4.449707	1.870528
4.450195	1.870595
4.450684	1.870774
4.451172	1.870533
4.451660	1.870553
4.452148	1.870474
4.452637	1.870647
4.453125	1.870788
4.453613	1.870612
4.454102	1.870620
4.454590	1.870678
4.455078	1.870740
4.455566	1.870670
4.456055	1.870609
4.456543	1.870617
4.457031	1.870604
4.457520	1.870417
4.458008	1.870553
4.458496	1.870678
4.458984	1.870596
4.459473	1.870454
4.459961	1.870613
4.460449	1.870550
4.460937	1.870669
4.461426	1.870917
4.461914	1.870699
4.462402	1.871158
4.462891	1.870957
4.463379	1.870978
4.463867	1.870866
4.464355	1.871223
4.464844	1.871124
4.465332	1.871213
4.465820	1.871007
4.466309	1.871127
4.466797	1.870922
4.467285	1.871195
4.467773	1.870951
4.468262	1.871120
4.468750	1.870922
4.469238	1.871316
4.469727	1.871166
4.470215	1.871239
4.470703	1.871174
4.471191	1.871221
4.471680	1.871316
4.472168	1.871395
4.472656	1.871369
4.473145	1.871211
4.473633	1.871165
4.474121	1.871358
4.474609	1.871318
4.475098	1.871126
4.475586	1.871259
4.476074	1.871375
4.476562	1.871460
4.477051	1.871470
4.477539	1.871261
4.478027	1.871370
4.478516	1.871107
4.479004	1.871241
4.479492	1.871454
4.479980	1.871347
4.480469	1.871185
4.480957	1.871288
4.481445	1.871308
4.481934	1.871303
4.482422	1.871452
4.482910	1.871334
4.483398	1.871279
4.483887	1.871386
4.484375	1.871258
4.484863	1.870935
4.485352	1.870907
4.485840	1.871121
4.486328	1.871217
4.486816	1.870971
4.487305	1.870902
4.487793	1.871079
4.488281	1.871151
4.488770	1.871571
4.489258	1.871095
4.489746	1.871165
4.490234	1.871189
4.490723	1.871499
4.491211	1.871439
4.491699	1.871303
4.492187	1.871180
4.492676	1.871396
4.493164	1.871320
4.493652	1.871502
4.494141	1.871140
4.494629	1.871220
4.495117	1.871453
4.495605	1.871265
4.496094	1.871168
4.496582	1.871212
4.497070	1.871276
4.497559	1.871420
4.498047	1.871420
4.498535	1.871234
4.499023	1.871204
4.499512	1.871099
4.500000	1.871149
4.500488	1.871045
4.500977	1.871195
4.501465	1.871193
4.501953	1.871102
4.502441	1.871086
4.502930	1.871205
4.503418	1.871048
4.503906	1.871170
4.504395	1.870948
4.504883	1.871138
4.505371	1.870938
4.505859	1.871154
4.506348	1.870999
4.506836	1.870913
4.507324	1.870921
4.507812	1.870979
4.508301	1.870941
4.508789	1.870789
4.509277	1.870941
4.509766	1.870970
4.510254	1.870925
4.510742	1.870860
4.511230	1.870880
4.511719	1.871005
4.512207	1.871193
4.512695	1.871333
4.513184	1.870862
4.513672	1.870995
4.514160	1.871048
4.514648	1.871267
4.515137	1.871133
4.515625	1.871039
4.516113	1.870763
4.516602	1.871203
4.517090	1.871290
4.517578	1.870894
4.518066	1.871023
4.518555	1.870760
4.519043	1.870872
4.519531	1.871282
4.520020	1.871409
4.520508	1.871261
4.520996	1.871195
4.521484	1.871055
4.521973	1.871264
4.522461	1.871348
4.522949	1.871384
4.523437	1.871153
4.523926	1.871388
4.524414	1.871597
4.524902	1.871380
4.525391	1.871480
4.525879	1.871257
4.526367	1.871286
4.526855	1.871577
4.527344	1.871677
4.527832	1.871281
4.528320	1.871300
4.528809	1.871117
4.529297	1.871150
4.529785	1.871185
4.530273	1.871238
4.530762	1.871158
4.531250	1.871252
4.531738	1.871299
4.532227	1.871186
4.532715	1.871380
4.533203	1.871457
4.533691	1.871423
4.534180	1.871197
4.534668	1.871121
4.535156	1.871417
4.535645	1.871344
4.536133	1.871390
4.536621	1.871194
4.537109	1.871186
4.537598	1.871225
4.538086	1.871563
4.538574	1.871248
4.539062	1.871164
4.539551	1.871466
4.540039	1.871472
4.540527	1.871454
4.541016	1.871367
4.541504	1.871111
4.541992	1.871281
4.542480	1.871278
4.542969	1.871248
4.543457	1.871258
4.543945	1.871134
4.544434	1.871317
4.544922	1.871045
4.545410	1.870854
4.545898	1.870973
4.546387	1.870922
4.546875	1.871125
4.547363	1.871222
4.547852	1.870985
4.548340	1.871029
4.548828	1.870891
4.549316	1.870852
4.549805	1.870968
4.550293	1.871014
4.550781	1.870937
4.551270	1.870769
4.551758	1.871030
4.552246	1.870730
4.552734	1.870868
4.553223	1.870747
4.553711	1.870886
4.554199	1.870766
4.554687	1.871001
4.555176	1.870996
4.555664	1.870790
4.556152	1.870646
4.556641	1.870976
4.557129	1.870809
4.557617	1.871140
4.558105	1.871077
4.558594	1.870900
4.559082	1.871214
4.559570	1.871126
4.560059	1.870997
4.560547	1.870922
4.561035	1.871008
4.561523	1.871192
4.562012	1.871244
4.562500	1.871113
4.562988	1.871148
4.563477	1.871054
4.563965	1.871168
4.564453	1.871174
4.564941	1.871188
4.565430	1.871110
4.565918	1.871324
4.566406	1.871272
4.566895	1.871412
4.567383	1.871337
4.567871	1.871363
4.568359	1.871454
4.568848	1.871569
4.569336	1.871583
4.569824	1.871480
4.570312	1.871489
4.570801	1.871548
4.571289	1.871498
4.571777	1.871450
4.572266	1.871628
4.572754	1.871607
4.573242	1.871506
4.573730	1.871497
4.574219	1.871390
4.574707	1.871236
4.575195	1.871299
4.575684	1.871458
4.576172	1.871409
4.576660	1.871564
4.577148	1.871310
4.577637	1.871215
4.578125	1.871190
4.578613	1.871320
4.579102	1.871341
4.579590	1.871210
4.580078	1.871135
4.580566	1.871229
4.581055	1.871058
4.581543	1.871299
4.582031	1.871092
4.582520	1.871344
4.583008	1.871301
4.583496	1.871331
4.583984	1.871077
4.584473	1.871061
4.584961	1.871220
4.585449	1.871346
4.585937	1.871066
4.586426	1.871205
4.586914	1.870830
4.587402	1.871018
4.587891	1.871078
4.588379	1.870958
4.588867	1.871016
4.589355	1.871088
4.589844	1.870963
4.590332	1.871108
4.590820	1.871118
4.591309	1.870943
4.591797	1.870885
4.592285	1.871134
4.592773	1.871174
4.593262	1.871180
4.593750	1.871242
4.594238	1.871275
4.594727	1.871132
4.595215	1.871093
4.595703	1.871138
4.596191	1.871179
4.596680	1.871220
4.597168	1.870954
4.597656	1.871083
4.598145	1.871039
4.598633	1.870825
4.599121	1.870875
4.599609	1.871024
4.600098	1.871196
4.600586	1.871082
4.601074	1.871057
4.601562	1.870922
4.602051	1.870885
4.602539	1.870985
4.603027	1.870897
4.603516	1.871467
4.604004	1.871279
4.604492	1.870897
4.604980	1.871065
4.605469	1.871269
4.605957	1.871053
4.606445	1.871156
4.606934	1.871098
4.607422	1.871093
4.607910	1.870868
4.608398	1.870913
4.608887	1.871126
4.609375	1.871169
4.609863	1.871036
4.610352	1.870977
4.610840	1.871349
4.611328	1.871298
4.611816	1.871306
4.612305	1.871403
4.612793	1.871348
4.613281	1.871096
4.613770	1.871221
4.614258	1.871424
4.614746	1.871272
4.615234	1.871294
4.615723	1.871333
4.616211	1.871262
4.616699	1.871292
4.617187	1.871650
4.617676	1.871181
4.618164	1.871517
4.618652	1.871434
4.619141	1.871489
4.619629	1.871140
4.620117	1.871162
4.620605	1.871120
4.621094	1.871250
4.621582	1.871138
4.622070	1.871168
4.622559	1.870952
4.623047	1.871154
4.623535	1.870938
4.624023	1.871060
4.624512	1.870818
4.625000	1.871025
4.625488	1.870955
4.625977	1.871027
4.626465	1.871256
4.626953	1.871027
4.627441	1.871166
4.627930	1.871151
4.628418	1.870977
4.628906	1.870966
4.629395	1.871049
4.629883	1.871033
4.630371	1.870932
4.630859	1.870922
4.631348	1.870816
4.631836	1.870767
4.632324	1.870965
4.632812	1.871151
4.633301	1.870911
4.633789	1.870786
4.634277	1.870956
4.634766	1.871019
4.635254	1.871065
4.635742	1.871149
4.636230	1.871074
4.636719	1.871030
4.637207	1.870998
4.637695	1.870924
4.638184	1.870778
4.638672	1.870880
4.639160	1.871085
4.639648	1.871085
4.640137	1.870748
4.640625	1.871030
4.641113	1.870987
4.641602	1.871066
4.642090	1.871339
4.642578	1.871051
4.643066	1.871043
4.643555	1.871012
4.644043	1.871217
4.644531	1.870962
4.645020	1.871038
4.645508	1.870898
4.645996	1.871059
4.646484	1.870885
4.646973	1.871121
4.647461	1.870874
4.647949	1.871151
4.648437	1.871279
4.648926	1.871126
4.649414	1.871011
4.649902	1.871347
4.650391	1.871275
4.650879	1.871320
4.651367	1.871198
4.651855	1.871258
4.652344	1.871239
4.652832	1.871368
4.653320	1.871187
4.653809	1.871286
4.654297	1.871233
4.654785	1.871427
4.655273	1.871246
4.655762	1.871262
4.656250	1.871299
4.656738	1.871261
4.657227	1.871330
4.657715	1.871420
4.658203	1.871234
4.658691	1.871288
4.659180	1.871482
4.659668	1.871360
4.660156	1.871513
4.660645	1.871483
4.661133	1.871560
4.661621	1.871445
4.662109	1.871516
4.662598	1.871494
4.663086	1.871369
4.663574	1.871438
4.664062	1.871422
4.664551	1.871343
4.665039	1.871359
4.665527	1.871401
4.666016	1.871350
4.666504	1.871206
4.666992	1.871242
4.667480	1.871341
4.667969	1.871566
4.668457	1.871487
4.668945	1.871443
4.669434	1.871331
4.669922	1.871434
4.670410	1.871405
4.670898	1.871430
4.671387	1.871369
4.671875	1.871293
4.672363	1.871375
4.672852	1.871409
4.673340	1.871394
4.673828	1.871428
4.674316	1.871272
4.674805	1.871258
4.675293	1.871320
4.675781	1.871386
4.676270	1.871239
4.676758	1.871259
4.677246	1.871051
4.677734	1.871118
4.678223	1.871199
4.678711	1.871025
4.679199	1.870827
4.679687	1.871002
4.680176	1.871228
4.680664	1.871003
4.681152	1.870997
4.681641	1.871037
4.682129	1.870980
4.682617	1.871039
4.683105	1.871086
4.683594	1.871077
4.684082	1.871057
4.684570	1.870796
4.685059	1.870873
4.685547	1.871034
4.686035	1.870956
4.686523	1.870891
4.687012	1.870979
4.687500	1.870955
4.687988	1.871059
4.688477	1.870999
4.688965	1.870920
4.689453	1.870720
4.689941	1.870864
4.690430	1.871006
4.690918	1.870798
4.691406	1.870645
4.691895	1.870736
4.692383	1.870891
4.692871	1.870858
4.693359	1.870725
4.693848	1.870656
4.694336	1.870754
4.694824	1.870931
4.695312	1.870894
4.695801	1.870785
4.696289	1.870774
4.696777	1.871026
4.697266	1.870819
4.697754	1.870680
4.698242	1.870878
4.698730	1.870619
4.699219	1.870937
4.699707	1.870904
4.700195	1.870708
4.700684	1.870747
4.701172	1.870996
4.701660	1.870807
4.702148	1.871135
4.702637	1.870965
4.703125	1.871003
4.703613	1.871041
4.704102	1.871210
4.704590	1.871210
4.705078	1.871054
4.705566	1.870941
4.706055	1.871130
4.706543	1.870925
4.707031	1.870994
4.707520	1.871168
4.708008	1.871153
4.708496	1.870808
4.708984	1.870885
4.709473	1.870899
4.709961	1.870856
4.710449	1.870921
4.710937	1.870837
4.711426	1.870977
4.711914	1.870840
4.712402	1.870597
4.712891	1.871117
4.713379	1.871301
4.713867	1.871112
4.714355	1.871069
4.714844	1.870684
4.715332	1.870847
4.715820	1.870736
4.716309	1.870915
4.716797	1.871076
4.717285	1.871066
4.717773	1.871195
4.718262	1.870947
4.718750	1.870911
4.719238	1.870860
4.719727	1.871104
4.720215	1.870617
4.720703	1.870664
4.721191	1.870938
4.721680	1.870811
4.722168	1.870554
4.722656	1.870522
4.723145	1.870580
4.723633	1.870558
4.724121	1.871040
4.724609	1.870594
4.725098	1.870634
4.725586	1.870595
4.726074	1.870646
4.726562	1.870591
4.727051	1.870526
4.727539	1.870714
4.728027	1.870686
4.728516	1.870614
4.729004	1.870738
4.729492	1.870673
4.729980	1.870592
4.730469	1.870565
4.730957	1.870522
4.731445	1.870578
4.731934	1.870792
4.732422	1.870858
4.732910	1.870885
4.733398	1.870689
4.733887	1.870730
4.734375	1.870791
4.734863	1.870451
4.735352	1.870655
4.735840	1.870751
4.736328	1.870699
4.736816	1.870557
4.737305	1.870550
4.737793	1.870728
4.738281	1.870600
4.738770	1.870908
4.739258	1.870537
4.739746	1.870512
4.740234	1.870923
4.740723	1.871007
4.741211	1.870716
4.741699	1.870857
4.742187	1.870836
4.742676	1.871009
4.743164	1.871076
4.743652	1.870943
4.744141	1.871015
4.744629	1.871078
4.745117	1.871041
4.745605	1.870936
4.746094	1.870830
4.746582	1.871092
4.747070	1.871128
4.747559	1.870944
4.748047	1.871132
4.748535	1.870802
4.749023	1.871013
4.749512	1.871170
4.750000	1.871041
4.750488	1.870774
4.750977	1.871018
4.751465	1.871279
4.751953	1.871061
4.752441	1.871017
4.752930	1.871031
4.753418	1.870993
4.753906	1.871061
4.754395	1.871132
4.754883	1.871073
4.755371	1.870921
4.755859	1.871276
4.756348	1.870965
4.756836	1.871013
4.757324	1.870944
4.757812	1.870948
4.758301	1.871159
4.758789	1.871213
4.759277	1.871069
4.759766	1.871038
4.760254	1.870951
4.760742	1.871301
4.761230	1.871122
4.761719	1.871091
4.762207	1.871190
4.762695	1.871293
4.763184	1.871095
4.763672	1.871232
4.764160	1.871212
4.764648	1.871206
4.765137	1.871187
4.765625	1.870987
4.766113	1.870854
4.766602	1.870963
4.767090	1.870828
4.767578	1.870943
4.768066	1.870926
4.768555	1.870800
4.769043	1.870815
4.769531	1.870908
4.770020	1.870734
4.770508	1.871099
4.770996	1.870909
4.771484	1.870730
4.771973	1.870802
4.772461	1.871052
4.772949	1.870768
4.773437	1.870870
4.773926	1.870834
4.774414	1.870811
4.774902	1.870701
4.775391	1.870935
4.775879	1.870763
4.776367	1.870814
4.776855	1.870783
4.777344	1.870868
4.777832	1.870748
4.778320	1.870967
4.778809	1.870789
4.779297	1.870645
4.779785	1.870886
4.780273	1.870849
4.780762	1.870801
4.781250	1.870645
4.781738	1.870656
4.782227	1.870832
4.782715	1.870832
4.783203	1.870630
4.783691	1.870591
4.784180	1.870467
4.784668	1.870749
4.785156	1.870749
4.785645	1.870361
4.786133	1.870241
4.786621	1.870703
4.787109	1.870707
4.787598	1.870814
4.788086	1.870731
4.788574	1.870736
4.789062	1.870854
4.789551	1.870868
4.790039	1.871023
4.790527	1.870694
4.791016	1.870823
4.791504	1.870825
4.791992	1.871052
4.792480	1.871058
4.792969	1.871108
4.793457	1.871139
4.793945	1.870839
4.794434	1.870751
4.794922	1.870936
4.795410	1.870779
4.795898	1.870710
4.796387	1.870689
4.796875	1.871024
4.797363	1.870838
4.797852	1.870667
4.798340	1.870773
4.798828	1.870805
4.799316	1.871034
4.799805	1.871165
4.800293	1.871000
4.800781	1.870979
4.801270	1.870866
4.801758	1.870990
4.802246	1.870878
4.802734	1.870899
4.803223	1.871088
4.803711	1.870931
4.804199	1.871027
4.804687	1.870912
4.805176	1.870935
4.805664	1.870731
4.806152	1.870930
4.806641	1.870901
4.807129	1.870871
4.807617	1.871018
4.808105	1.870952
4.808594	1.870854
4.809082	1.870860
4.809570	1.870779
4.810059	1.870866
4.810547	1.871291
4.811035	1.871006
4.811523	1.871035
4.812012	1.870786
4.812500	1.870731
4.812988	1.870949
4.813477	1.871217
4.813965	1.870656
4.814453	1.870792
4.814941	1.870940
4.815430	1.870852
4.815918	1.870753
4.816406	1.870699
4.816895	1.870558
4.817383	1.870738
4.817871	1.870879
4.818359	1.870749
4.818848	1.870284
4.819336	1.870633
4.819824	1.870760
4.820312	1.870737
4.820801	1.870782
4.821289	1.870558
4.821777	1.870601
4.822266	1.870955
4.822754	1.871009
4.823242	1.870660
4.823730	1.870735
4.824219	1.870782
4.824707	1.870904
4.825195	1.870862
4.825684	1.870828
4.826172	1.870778
4.826660	1.870897
4.827148	1.870609
4.827637	1.871175
4.828125	1.870915
4.828613	1.870972
4.829102	1.870903
4.829590	1.870935
4.830078	1.870999
4.830566	1.871045
4.831055	1.870893
4.831543	1.871027
4.832031	1.871126
4.832520	1.871141
4.833008	1.871004
4.833496	1.871194
4.833984	1.871325
4.834473	1.871123
4.834961	1.871106
4.835449	1.871173
4.835937	1.871142
4.836426	1.871232
4.836914	1.871501
4.837402	1.871109
4.837891	1.871389
4.838379	1.871303
4.838867	1.871236
4.839355	1.871195
4.839844	1.871323
4.840332	1.871231
4.840820	1.871236
4.841309	1.871170
4.841797	1.871312
4.842285	1.870985
4.842773	1.870995
4.843262	1.871160
4.843750	1.871094
4.844238	1.870877
4.844727	1.870913
4.845215	1.871006
4.845703	1.870857
4.846191	1.871371
4.846680	1.870976
4.847168	1.871034
4.847656	1.871001
4.848145	1.871062
4.848633	1.871038
4.849121	1.870868
4.849609	1.870973
4.850098	1.870961
4.850586	1.870839
4.851074	1.870847
4.851562	1.870983
4.852051	1.870987
4.852539	1.871014
4.853027	1.870890
4.853516	1.870936
4.854004	1.871019
4.854492	1.870951
4.854980	1.870948
4.855469	1.870869
4.855957	1.870886
4.856445	1.870861
4.856934	1.871041
4.857422	1.870675
4.857910	1.870993
4.858398	1.870944
4.858887	1.870902
4.859375	1.870705
4.859863	1.870883
4.860352	1.870811
4.860840	1.870870
4.861328	1.870720
4.861816	1.870720
4.862305	1.870672
4.862793	1.870988
4.863281	1.870960
4.863770	1.870836
4.864258	1.870598
4.864746	1.870802
4.865234	1.870989
4.865723	1.870843
4.866211	1.871013
4.866699	1.870915
4.867187	1.870630
4.867676	1.870929
4.868164	1.870908
4.868652	1.871209
4.869141	1.871046
4.869629	1.870932
4.870117	1.871065
4.870605	1.871237
4.871094	1.871124
4.871582	1.871160
4.872070	1.871197
4.872559	1.871339
4.873047	1.871059
4.873535	1.870991
4.874023	1.871370
4.874512	1.871318
4.875000	1.871141
4.875488	1.871084
4.875977	1.871218
4.876465	1.871312
4.876953	1.871405
4.877441	1.871390
4.877930	1.871422
4.878418	1.871387
4.878906	1.871340
4.879395	1.871530
4.879883	1.871371
4.880371	1.871635
4.880859	1.871656
4.881348	1.871602
4.881836	1.871562
4.882324	1.871640

