LabVIEW Measurement	
Writer_Version	2
Reader_Version	2
Separator	Tab
Decimal_Separator	.
Multi_Headings	Yes
X_Columns	One
Time_Pref	Absolute
Operator	W-Tunnel
Date	2024/05/16
Time	10:12:18.7331876812496812916
***End_of_Header***	
	
Channels	1	
Samples	10000	
Date	2024/05/16	
Time	10:16:57.8630654812496140416	
Y_Unit_Label	Volts	
X_Dimension	Time	
X0	0.0000000000000000E+0	
Delta_X	0.000488	
***End_of_Header***		
X_Value	Voltage	Comment
0.000000	1.694540
0.000488	1.694698
0.000977	1.694383
0.001465	1.694504
0.001953	1.694547
0.002441	1.694415
0.002930	1.694871
0.003418	1.694521
0.003906	1.694390
0.004395	1.694406
0.004883	1.694729
0.005371	1.694680
0.005859	1.694726
0.006348	1.694452
0.006836	1.694491
0.007324	1.694513
0.007812	1.694748
0.008301	1.694539
0.008789	1.694349
0.009277	1.694220
0.009766	1.694759
0.010254	1.694460
0.010742	1.694748
0.011230	1.694341
0.011719	1.694526
0.012207	1.694583
0.012695	1.694571
0.013184	1.694322
0.013672	1.694337
0.014160	1.694332
0.014648	1.694759
0.015137	1.694490
0.015625	1.694307
0.016113	1.694142
0.016602	1.694215
0.017090	1.694504
0.017578	1.694386
0.018066	1.694216
0.018555	1.694103
0.019043	1.694483
0.019531	1.694593
0.020020	1.694511
0.020508	1.694420
0.020996	1.694247
0.021484	1.694436
0.021973	1.694359
0.022461	1.694489
0.022949	1.694316
0.023437	1.694122
0.023926	1.694410
0.024414	1.694362
0.024902	1.694323
0.025391	1.694471
0.025879	1.694236
0.026367	1.694627
0.026855	1.694651
0.027344	1.694505
0.027832	1.694214
0.028320	1.694096
0.028809	1.694320
0.029297	1.694485
0.029785	1.694182
0.030273	1.694214
0.030762	1.693974
0.031250	1.694007
0.031738	1.694592
0.032227	1.694533
0.032715	1.693893
0.033203	1.694013
0.033691	1.694405
0.034180	1.694521
0.034668	1.694334
0.035156	1.694324
0.035645	1.694051
0.036133	1.694405
0.036621	1.694378
0.037109	1.694214
0.037598	1.693766
0.038086	1.694211
0.038574	1.694245
0.039062	1.694054
0.039551	1.693948
0.040039	1.693814
0.040527	1.693832
0.041016	1.694353
0.041504	1.693999
0.041992	1.693696
0.042480	1.693723
0.042969	1.693731
0.043457	1.694002
0.043945	1.693956
0.044434	1.693968
0.044922	1.693863
0.045410	1.693903
0.045898	1.694006
0.046387	1.694181
0.046875	1.694011
0.047363	1.694004
0.047852	1.694087
0.048340	1.694366
0.048828	1.694296
0.049316	1.694118
0.049805	1.694144
0.050293	1.694165
0.050781	1.694207
0.051270	1.694184
0.051758	1.694017
0.052246	1.694047
0.052734	1.694038
0.053223	1.694159
0.053711	1.694275
0.054199	1.694062
0.054687	1.693972
0.055176	1.694295
0.055664	1.694446
0.056152	1.694314
0.056641	1.694221
0.057129	1.694234
0.057617	1.694237
0.058105	1.694644
0.058594	1.694395
0.059082	1.693957
0.059570	1.694176
0.060059	1.694636
0.060547	1.694587
0.061035	1.694321
0.061523	1.694292
0.062012	1.694240
0.062500	1.694508
0.062988	1.694962
0.063477	1.694296
0.063965	1.694363
0.064453	1.694487
0.064941	1.694600
0.065430	1.694734
0.065918	1.694524
0.066406	1.694458
0.066895	1.694280
0.067383	1.694783
0.067871	1.694664
0.068359	1.694295
0.068848	1.694271
0.069336	1.694649
0.069824	1.694766
0.070312	1.694748
0.070801	1.694463
0.071289	1.694651
0.071777	1.694604
0.072266	1.694877
0.072754	1.694699
0.073242	1.694659
0.073730	1.694312
0.074219	1.694942
0.074707	1.694610
0.075195	1.694749
0.075684	1.694534
0.076172	1.694669
0.076660	1.694568
0.077148	1.694884
0.077637	1.694760
0.078125	1.694672
0.078613	1.694705
0.079102	1.694857
0.079590	1.694770
0.080078	1.694646
0.080566	1.694569
0.081055	1.694644
0.081543	1.694766
0.082031	1.694566
0.082520	1.694409
0.083008	1.694197
0.083496	1.694477
0.083984	1.694858
0.084473	1.694395
0.084961	1.694178
0.085449	1.694429
0.085937	1.694342
0.086426	1.694650
0.086914	1.694585
0.087402	1.694549
0.087891	1.694279
0.088379	1.694535
0.088867	1.694521
0.089355	1.694504
0.089844	1.694445
0.090332	1.694597
0.090820	1.694328
0.091309	1.694438
0.091797	1.694340
0.092285	1.694209
0.092773	1.694192
0.093262	1.694272
0.093750	1.694231
0.094238	1.694300
0.094727	1.694107
0.095215	1.694053
0.095703	1.694239
0.096191	1.694389
0.096680	1.694172
0.097168	1.694013
0.097656	1.694059
0.098145	1.694048
0.098633	1.694013
0.099121	1.694121
0.099609	1.694072
0.100098	1.694194
0.100586	1.694237
0.101074	1.694480
0.101562	1.694143
0.102051	1.694353
0.102539	1.694190
0.103027	1.694410
0.103516	1.694069
0.104004	1.694323
0.104492	1.694089
0.104980	1.694206
0.105469	1.694281
0.105957	1.694319
0.106445	1.694071
0.106934	1.694101
0.107422	1.694179
0.107910	1.694182
0.108398	1.693952
0.108887	1.694129
0.109375	1.693873
0.109863	1.694164
0.110352	1.694316
0.110840	1.694138
0.111328	1.694379
0.111816	1.693952
0.112305	1.694062
0.112793	1.693958
0.113281	1.693926
0.113770	1.694112
0.114258	1.694020
0.114746	1.694122
0.115234	1.694165
0.115723	1.693912
0.116211	1.694068
0.116699	1.694306
0.117187	1.694051
0.117676	1.694038
0.118164	1.694389
0.118652	1.694098
0.119141	1.694136
0.119629	1.694311
0.120117	1.694229
0.120605	1.694012
0.121094	1.693984
0.121582	1.694022
0.122070	1.693868
0.122559	1.694225
0.123047	1.693996
0.123535	1.693896
0.124023	1.693899
0.124512	1.694115
0.125000	1.694253
0.125488	1.693977
0.125977	1.693758
0.126465	1.694172
0.126953	1.694189
0.127441	1.693909
0.127930	1.694035
0.128418	1.694062
0.128906	1.694101
0.129395	1.694068
0.129883	1.694110
0.130371	1.694045
0.130859	1.693978
0.131348	1.694227
0.131836	1.694134
0.132324	1.694185
0.132812	1.694021
0.133301	1.693947
0.133789	1.693911
0.134277	1.694198
0.134766	1.693888
0.135254	1.693776
0.135742	1.693627
0.136230	1.693897
0.136719	1.694040
0.137207	1.693815
0.137695	1.693739
0.138184	1.693801
0.138672	1.693888
0.139160	1.694323
0.139648	1.693989
0.140137	1.694098
0.140625	1.694233
0.141113	1.694218
0.141602	1.694137
0.142090	1.694186
0.142578	1.694164
0.143066	1.693988
0.143555	1.694040
0.144043	1.694120
0.144531	1.694023
0.145020	1.693745
0.145508	1.694308
0.145996	1.694525
0.146484	1.694071
0.146973	1.694034
0.147461	1.694094
0.147949	1.694164
0.148437	1.694089
0.148926	1.694107
0.149414	1.694143
0.149902	1.694084
0.150391	1.694112
0.150879	1.694204
0.151367	1.694073
0.151855	1.694237
0.152344	1.694207
0.152832	1.694151
0.153320	1.694089
0.153809	1.694403
0.154297	1.694385
0.154785	1.694342
0.155273	1.694291
0.155762	1.694607
0.156250	1.694317
0.156738	1.694236
0.157227	1.694181
0.157715	1.694389
0.158203	1.694497
0.158691	1.694481
0.159180	1.694288
0.159668	1.694320
0.160156	1.694529
0.160645	1.694533
0.161133	1.694312
0.161621	1.694261
0.162109	1.694147
0.162598	1.694510
0.163086	1.694492
0.163574	1.694420
0.164062	1.694304
0.164551	1.694337
0.165039	1.694371
0.165527	1.694369
0.166016	1.694426
0.166504	1.694209
0.166992	1.694251
0.167480	1.694579
0.167969	1.694599
0.168457	1.694391
0.168945	1.694287
0.169434	1.694370
0.169922	1.694512
0.170410	1.694421
0.170898	1.694455
0.171387	1.694301
0.171875	1.694445
0.172363	1.694559
0.172852	1.694507
0.173340	1.694284
0.173828	1.694448
0.174316	1.694317
0.174805	1.694444
0.175293	1.694320
0.175781	1.694328
0.176270	1.694112
0.176758	1.694249
0.177246	1.694185
0.177734	1.694220
0.178223	1.694061
0.178711	1.694284
0.179199	1.694166
0.179687	1.694303
0.180176	1.694201
0.180664	1.694203
0.181152	1.694026
0.181641	1.694301
0.182129	1.694198
0.182617	1.694397
0.183105	1.694032
0.183594	1.694101
0.184082	1.694308
0.184570	1.694341
0.185059	1.694477
0.185547	1.694121
0.186035	1.694073
0.186523	1.694212
0.187012	1.694483
0.187500	1.694374
0.187988	1.694161
0.188477	1.694112
0.188965	1.694288
0.189453	1.694428
0.189941	1.694432
0.190430	1.694327
0.190918	1.694374
0.191406	1.694326
0.191895	1.694327
0.192383	1.694166
0.192871	1.694283
0.193359	1.694190
0.193848	1.694274
0.194336	1.694432
0.194824	1.694250
0.195312	1.694222
0.195801	1.694139
0.196289	1.694256
0.196777	1.694172
0.197266	1.694352
0.197754	1.694117
0.198242	1.694372
0.198730	1.694653
0.199219	1.694400
0.199707	1.694242
0.200195	1.694493
0.200684	1.694570
0.201172	1.694336
0.201660	1.694283
0.202148	1.694444
0.202637	1.694340
0.203125	1.694157
0.203613	1.694339
0.204102	1.694389
0.204590	1.694172
0.205078	1.694395
0.205566	1.694276
0.206055	1.694410
0.206543	1.694263
0.207031	1.694291
0.207520	1.694050
0.208008	1.694334
0.208496	1.694304
0.208984	1.694399
0.209473	1.694119
0.209961	1.694303
0.210449	1.694519
0.210937	1.694491
0.211426	1.694672
0.211914	1.694317
0.212402	1.694324
0.212891	1.694662
0.213379	1.694417
0.213867	1.694273
0.214355	1.694102
0.214844	1.694254
0.215332	1.694426
0.215820	1.694445
0.216309	1.694123
0.216797	1.694267
0.217285	1.694228
0.217773	1.694350
0.218262	1.694350
0.218750	1.694254
0.219238	1.694182
0.219727	1.694396
0.220215	1.694368
0.220703	1.694441
0.221191	1.694409
0.221680	1.694270
0.222168	1.694369
0.222656	1.694528
0.223145	1.694458
0.223633	1.694350
0.224121	1.694307
0.224609	1.694564
0.225098	1.694603
0.225586	1.694408
0.226074	1.694243
0.226562	1.694254
0.227051	1.694356
0.227539	1.694419
0.228027	1.694441
0.228516	1.694247
0.229004	1.694250
0.229492	1.694628
0.229980	1.694566
0.230469	1.694552
0.230957	1.694256
0.231445	1.694347
0.231934	1.694421
0.232422	1.694597
0.232910	1.694433
0.233398	1.694252
0.233887	1.694236
0.234375	1.694568
0.234863	1.694216
0.235352	1.694426
0.235840	1.694162
0.236328	1.694248
0.236816	1.694361
0.237305	1.694602
0.237793	1.694344
0.238281	1.694477
0.238770	1.694460
0.239258	1.694577
0.239746	1.694611
0.240234	1.694447
0.240723	1.694182
0.241211	1.694497
0.241699	1.694399
0.242187	1.694591
0.242676	1.694317
0.243164	1.694313
0.243652	1.694356
0.244141	1.694434
0.244629	1.694353
0.245117	1.694262
0.245605	1.694220
0.246094	1.694258
0.246582	1.694524
0.247070	1.694523
0.247559	1.694216
0.248047	1.694410
0.248535	1.694503
0.249023	1.694655
0.249512	1.694388
0.250000	1.694586
0.250488	1.694273
0.250977	1.694498
0.251465	1.694608
0.251953	1.694447
0.252441	1.693998
0.252930	1.694341
0.253418	1.694584
0.253906	1.694449
0.254395	1.694299
0.254883	1.694284
0.255371	1.694297
0.255859	1.693993
0.256348	1.694179
0.256836	1.694315
0.257324	1.694191
0.257812	1.694126
0.258301	1.694213
0.258789	1.694158
0.259277	1.694158
0.259766	1.694591
0.260254	1.694187
0.260742	1.694161
0.261230	1.694442
0.261719	1.694247
0.262207	1.694081
0.262695	1.694130
0.263184	1.694197
0.263672	1.694203
0.264160	1.693936
0.264648	1.694012
0.265137	1.694095
0.265625	1.694236
0.266113	1.694201
0.266602	1.694018
0.267090	1.693856
0.267578	1.694160
0.268066	1.694256
0.268555	1.693880
0.269043	1.693693
0.269531	1.693713
0.270020	1.693972
0.270508	1.694095
0.270996	1.693928
0.271484	1.693780
0.271973	1.693823
0.272461	1.693965
0.272949	1.694098
0.273437	1.693903
0.273926	1.693802
0.274414	1.693719
0.274902	1.694099
0.275391	1.694030
0.275879	1.693967
0.276367	1.693849
0.276855	1.693686
0.277344	1.693934
0.277832	1.694357
0.278320	1.694103
0.278809	1.693509
0.279297	1.693955
0.279785	1.694324
0.280273	1.694326
0.280762	1.693984
0.281250	1.693885
0.281738	1.693952
0.282227	1.694081
0.282715	1.694121
0.283203	1.693749
0.283691	1.693616
0.284180	1.694211
0.284668	1.694068
0.285156	1.693894
0.285645	1.693787
0.286133	1.693842
0.286621	1.693943
0.287109	1.694290
0.287598	1.693852
0.288086	1.693803
0.288574	1.693733
0.289062	1.693993
0.289551	1.694013
0.290039	1.694037
0.290527	1.693796
0.291016	1.693763
0.291504	1.693914
0.291992	1.694007
0.292480	1.694081
0.292969	1.693711
0.293457	1.693572
0.293945	1.693878
0.294434	1.693954
0.294922	1.694013
0.295410	1.693981
0.295898	1.693735
0.296387	1.693806
0.296875	1.694074
0.297363	1.693813
0.297852	1.693719
0.298340	1.693746
0.298828	1.693872
0.299316	1.693913
0.299805	1.694053
0.300293	1.693952
0.300781	1.693872
0.301270	1.694093
0.301758	1.694110
0.302246	1.693901
0.302734	1.693891
0.303223	1.693799
0.303711	1.693974
0.304199	1.694156
0.304687	1.693991
0.305176	1.693933
0.305664	1.694005
0.306152	1.694100
0.306641	1.694077
0.307129	1.694146
0.307617	1.693991
0.308105	1.694214
0.308594	1.694108
0.309082	1.693839
0.309570	1.693892
0.310059	1.693794
0.310547	1.694176
0.311035	1.694295
0.311523	1.694153
0.312012	1.693988
0.312500	1.693975
0.312988	1.694110
0.313477	1.694214
0.313965	1.694081
0.314453	1.694091
0.314941	1.694068
0.315430	1.694203
0.315918	1.694351
0.316406	1.693955
0.316895	1.694024
0.317383	1.694316
0.317871	1.694278
0.318359	1.694134
0.318848	1.694314
0.319336	1.694117
0.319824	1.694198
0.320312	1.694421
0.320801	1.694411
0.321289	1.694132
0.321777	1.693839
0.322266	1.694070
0.322754	1.694379
0.323242	1.694125
0.323730	1.693934
0.324219	1.693922
0.324707	1.693819
0.325195	1.694212
0.325684	1.694514
0.326172	1.693826
0.326660	1.693948
0.327148	1.694032
0.327637	1.694318
0.328125	1.694132
0.328613	1.694194
0.329102	1.693775
0.329590	1.694281
0.330078	1.694093
0.330566	1.694517
0.331055	1.694327
0.331543	1.694166
0.332031	1.694434
0.332520	1.694443
0.333008	1.694236
0.333496	1.693775
0.333984	1.694037
0.334473	1.694313
0.334961	1.694220
0.335449	1.693772
0.335937	1.694015
0.336426	1.694330
0.336914	1.694156
0.337402	1.694143
0.337891	1.693966
0.338379	1.694022
0.338867	1.694163
0.339355	1.694192
0.339844	1.694153
0.340332	1.693936
0.340820	1.693951
0.341309	1.693988
0.341797	1.694274
0.342285	1.694176
0.342773	1.694186
0.343262	1.693838
0.343750	1.693743
0.344238	1.694250
0.344727	1.694334
0.345215	1.693962
0.345703	1.693852
0.346191	1.693988
0.346680	1.694212
0.347168	1.694114
0.347656	1.694038
0.348145	1.693673
0.348633	1.693945
0.349121	1.694041
0.349609	1.694172
0.350098	1.694077
0.350586	1.693825
0.351074	1.694111
0.351562	1.694074
0.352051	1.693892
0.352539	1.693678
0.353027	1.693680
0.353516	1.694038
0.354004	1.694038
0.354492	1.693858
0.354980	1.693749
0.355469	1.693486
0.355957	1.693775
0.356445	1.694118
0.356934	1.693839
0.357422	1.693669
0.357910	1.693769
0.358398	1.693952
0.358887	1.693902
0.359375	1.693905
0.359863	1.693697
0.360352	1.693717
0.360840	1.693743
0.361328	1.693903
0.361816	1.693724
0.362305	1.693556
0.362793	1.693661
0.363281	1.693745
0.363770	1.693469
0.364258	1.693731
0.364746	1.693636
0.365234	1.693589
0.365723	1.693828
0.366211	1.693702
0.366699	1.693699
0.367187	1.693520
0.367676	1.693625
0.368164	1.693698
0.368652	1.693718
0.369141	1.693597
0.369629	1.693387
0.370117	1.693519
0.370605	1.693799
0.371094	1.693655
0.371582	1.693614
0.372070	1.693530
0.372559	1.693607
0.373047	1.693600
0.373535	1.693833
0.374023	1.693574
0.374512	1.693783
0.375000	1.693728
0.375488	1.693901
0.375977	1.693655
0.376465	1.693254
0.376953	1.693674
0.377441	1.693831
0.377930	1.693788
0.378418	1.693683
0.378906	1.693631
0.379395	1.693583
0.379883	1.693838
0.380371	1.694044
0.380859	1.693575
0.381348	1.693681
0.381836	1.693561
0.382324	1.693837
0.382812	1.693901
0.383301	1.693713
0.383789	1.693689
0.384277	1.693761
0.384766	1.693641
0.385254	1.694179
0.385742	1.694323
0.386230	1.694060
0.386719	1.694101
0.387207	1.693840
0.387695	1.693950
0.388184	1.693865
0.388672	1.693833
0.389160	1.694074
0.389648	1.694181
0.390137	1.694333
0.390625	1.694043
0.391113	1.693860
0.391602	1.694063
0.392090	1.694259
0.392578	1.694040
0.393066	1.693796
0.393555	1.694023
0.394043	1.694164
0.394531	1.694037
0.395020	1.693953
0.395508	1.694139
0.395996	1.693926
0.396484	1.694198
0.396973	1.694160
0.397461	1.694125
0.397949	1.694076
0.398437	1.694187
0.398926	1.694178
0.399414	1.694286
0.399902	1.694176
0.400391	1.693798
0.400879	1.693929
0.401367	1.694059
0.401855	1.694221
0.402344	1.694057
0.402832	1.694084
0.403320	1.693927
0.403809	1.694143
0.404297	1.694211
0.404785	1.694020
0.405273	1.694023
0.405762	1.694253
0.406250	1.694229
0.406738	1.694342
0.407227	1.694192
0.407715	1.693960
0.408203	1.693988
0.408691	1.694048
0.409180	1.694409
0.409668	1.694427
0.410156	1.694221
0.410645	1.694156
0.411133	1.694319
0.411621	1.694582
0.412109	1.694363
0.412598	1.694289
0.413086	1.694392
0.413574	1.694541
0.414062	1.694549
0.414551	1.694337
0.415039	1.694151
0.415527	1.694133
0.416016	1.694273
0.416504	1.694471
0.416992	1.694303
0.417480	1.694168
0.417969	1.694184
0.418457	1.694458
0.418945	1.694360
0.419434	1.694335
0.419922	1.694414
0.420410	1.694496
0.420898	1.694533
0.421387	1.694535
0.421875	1.694433
0.422363	1.694161
0.422852	1.694306
0.423340	1.694320
0.423828	1.694512
0.424316	1.694454
0.424805	1.694341
0.425293	1.694544
0.425781	1.694442
0.426270	1.694494
0.426758	1.694389
0.427246	1.694200
0.427734	1.694205
0.428223	1.694395
0.428711	1.694205
0.429199	1.694157
0.429687	1.694269
0.430176	1.694455
0.430664	1.694392
0.431152	1.694237
0.431641	1.694165
0.432129	1.694300
0.432617	1.694306
0.433105	1.694287
0.433594	1.694190
0.434082	1.694006
0.434570	1.694217
0.435059	1.694488
0.435547	1.694503
0.436035	1.694217
0.436523	1.694037
0.437012	1.694111
0.437500	1.694395
0.437988	1.694442
0.438477	1.694074
0.438965	1.693955
0.439453	1.694331
0.439941	1.694455
0.440430	1.694409
0.440918	1.694101
0.441406	1.693999
0.441895	1.694171
0.442383	1.694103
0.442871	1.694066
0.443359	1.693601
0.443848	1.693923
0.444336	1.694095
0.444824	1.693988
0.445312	1.694095
0.445801	1.693884
0.446289	1.693706
0.446777	1.694159
0.447266	1.694123
0.447754	1.693798
0.448242	1.693855
0.448730	1.694123
0.449219	1.694031
0.449707	1.694151
0.450195	1.694089
0.450684	1.693800
0.451172	1.693840
0.451660	1.693936
0.452148	1.694152
0.452637	1.693855
0.453125	1.693639
0.453613	1.693741
0.454102	1.693858
0.454590	1.693914
0.455078	1.694140
0.455566	1.693662
0.456055	1.694032
0.456543	1.694217
0.457031	1.694123
0.457520	1.693899
0.458008	1.693882
0.458496	1.694039
0.458984	1.694258
0.459473	1.694134
0.459961	1.694117
0.460449	1.693848
0.460937	1.694063
0.461426	1.694161
0.461914	1.694097
0.462402	1.693804
0.462891	1.693927
0.463379	1.694000
0.463867	1.694320
0.464355	1.694182
0.464844	1.694032
0.465332	1.694249
0.465820	1.694094
0.466309	1.694149
0.466797	1.694392
0.467285	1.694131
0.467773	1.694032
0.468262	1.694170
0.468750	1.694323
0.469238	1.694173
0.469727	1.694036
0.470215	1.694090
0.470703	1.694178
0.471191	1.694281
0.471680	1.694368
0.472168	1.694238
0.472656	1.694296
0.473145	1.694225
0.473633	1.694158
0.474121	1.694260
0.474609	1.694004
0.475098	1.694032
0.475586	1.694134
0.476074	1.694024
0.476562	1.694123
0.477051	1.694212
0.477539	1.694174
0.478027	1.694377
0.478516	1.694395
0.479004	1.694533
0.479492	1.694330
0.479980	1.694495
0.480469	1.694596
0.480957	1.694719
0.481445	1.694444
0.481934	1.694408
0.482422	1.694411
0.482910	1.694609
0.483398	1.694424
0.483887	1.694410
0.484375	1.694251
0.484863	1.694543
0.485352	1.694735
0.485840	1.694582
0.486328	1.694486
0.486816	1.694422
0.487305	1.694489
0.487793	1.694538
0.488281	1.694470
0.488770	1.694441
0.489258	1.694488
0.489746	1.694584
0.490234	1.694723
0.490723	1.694695
0.491211	1.694585
0.491699	1.694976
0.492187	1.694874
0.492676	1.694856
0.493164	1.694901
0.493652	1.694849
0.494141	1.694779
0.494629	1.694901
0.495117	1.694755
0.495605	1.694754
0.496094	1.694626
0.496582	1.694654
0.497070	1.694687
0.497559	1.694804
0.498047	1.694740
0.498535	1.694547
0.499023	1.694581
0.499512	1.694710
0.500000	1.694854
0.500488	1.694862
0.500977	1.694874
0.501465	1.694655
0.501953	1.694741
0.502441	1.694744
0.502930	1.694678
0.503418	1.694562
0.503906	1.694749
0.504395	1.694984
0.504883	1.694908
0.505371	1.694784
0.505859	1.694773
0.506348	1.695095
0.506836	1.694906
0.507324	1.694911
0.507812	1.694730
0.508301	1.694678
0.508789	1.694837
0.509277	1.694925
0.509766	1.694666
0.510254	1.694714
0.510742	1.694671
0.511230	1.694688
0.511719	1.694557
0.512207	1.694693
0.512695	1.694934
0.513184	1.694491
0.513672	1.694574
0.514160	1.694906
0.514648	1.694711
0.515137	1.694829
0.515625	1.694956
0.516113	1.694855
0.516602	1.694894
0.517090	1.694630
0.517578	1.694599
0.518066	1.694768
0.518555	1.694974
0.519043	1.694975
0.519531	1.694917
0.520020	1.694813
0.520508	1.694696
0.520996	1.695028
0.521484	1.694715
0.521973	1.694671
0.522461	1.694610
0.522949	1.694582
0.523437	1.694517
0.523926	1.694627
0.524414	1.694477
0.524902	1.694472
0.525391	1.694631
0.525879	1.694596
0.526367	1.694580
0.526855	1.694583
0.527344	1.694409
0.527832	1.694814
0.528320	1.694699
0.528809	1.694757
0.529297	1.694737
0.529785	1.694498
0.530273	1.694580
0.530762	1.694639
0.531250	1.694638
0.531738	1.694843
0.532227	1.694613
0.532715	1.694740
0.533203	1.694657
0.533691	1.694630
0.534180	1.694501
0.534668	1.694469
0.535156	1.694508
0.535645	1.694363
0.536133	1.694466
0.536621	1.694266
0.537109	1.694383
0.537598	1.694386
0.538086	1.694430
0.538574	1.694273
0.539062	1.693995
0.539551	1.694461
0.540039	1.694950
0.540527	1.694472
0.541016	1.694234
0.541504	1.694454
0.541992	1.694323
0.542480	1.694474
0.542969	1.694458
0.543457	1.694398
0.543945	1.694225
0.544434	1.694250
0.544922	1.694483
0.545410	1.694808
0.545898	1.694377
0.546387	1.694290
0.546875	1.694445
0.547363	1.694604
0.547852	1.694330
0.548340	1.694268
0.548828	1.694251
0.549316	1.694508
0.549805	1.694682
0.550293	1.694579
0.550781	1.694464
0.551270	1.694269
0.551758	1.694534
0.552246	1.694500
0.552734	1.694491
0.553223	1.694209
0.553711	1.694165
0.554199	1.694441
0.554687	1.694545
0.555176	1.694447
0.555664	1.694277
0.556152	1.694130
0.556641	1.694324
0.557129	1.694511
0.557617	1.694370
0.558105	1.694173
0.558594	1.694229
0.559082	1.694464
0.559570	1.694579
0.560059	1.694505
0.560547	1.694467
0.561035	1.694513
0.561523	1.694641
0.562012	1.694838
0.562500	1.694466
0.562988	1.694420
0.563477	1.694258
0.563965	1.694367
0.564453	1.694469
0.564941	1.694192
0.565430	1.694330
0.565918	1.694409
0.566406	1.694633
0.566895	1.694544
0.567383	1.694165
0.567871	1.694226
0.568359	1.694536
0.568848	1.694574
0.569336	1.694495
0.569824	1.694294
0.570312	1.694259
0.570801	1.694453
0.571289	1.694918
0.571777	1.694528
0.572266	1.694512
0.572754	1.694347
0.573242	1.694359
0.573730	1.694530
0.574219	1.694500
0.574707	1.694303
0.575195	1.694300
0.575684	1.694477
0.576172	1.694559
0.576660	1.694658
0.577148	1.694375
0.577637	1.694419
0.578125	1.694498
0.578613	1.694802
0.579102	1.694586
0.579590	1.694564
0.580078	1.694281
0.580566	1.694370
0.581055	1.694685
0.581543	1.694472
0.582031	1.694131
0.582520	1.694209
0.583008	1.694568
0.583496	1.694364
0.583984	1.694297
0.584473	1.694397
0.584961	1.694402
0.585449	1.694448
0.585937	1.694312
0.586426	1.694452
0.586914	1.694433
0.587402	1.694356
0.587891	1.694459
0.588379	1.694558
0.588867	1.694449
0.589355	1.694436
0.589844	1.694585
0.590332	1.694536
0.590820	1.694388
0.591309	1.694182
0.591797	1.694305
0.592285	1.694286
0.592773	1.694320
0.593262	1.694231
0.593750	1.694134
0.594238	1.694275
0.594727	1.694239
0.595215	1.694384
0.595703	1.694214
0.596191	1.694277
0.596680	1.694143
0.597168	1.694382
0.597656	1.694371
0.598145	1.694397
0.598633	1.694154
0.599121	1.694416
0.599609	1.694477
0.600098	1.694795
0.600586	1.694527
0.601074	1.694494
0.601562	1.694459
0.602051	1.694424
0.602539	1.694470
0.603027	1.694233
0.603516	1.694166
0.604004	1.694596
0.604492	1.694300
0.604980	1.694413
0.605469	1.694330
0.605957	1.694185
0.606445	1.694276
0.606934	1.694441
0.607422	1.694526
0.607910	1.694352
0.608398	1.694298
0.608887	1.694327
0.609375	1.694501
0.609863	1.694480
0.610352	1.694095
0.610840	1.694356
0.611328	1.694377
0.611816	1.694599
0.612305	1.694586
0.612793	1.694439
0.613281	1.694372
0.613770	1.694460
0.614258	1.694665
0.614746	1.694345
0.615234	1.694145
0.615723	1.694136
0.616211	1.694318
0.616699	1.694502
0.617187	1.694392
0.617676	1.694210
0.618164	1.694153
0.618652	1.694269
0.619141	1.694301
0.619629	1.694206
0.620117	1.694282
0.620605	1.694261
0.621094	1.694176
0.621582	1.694393
0.622070	1.693943
0.622559	1.693776
0.623047	1.693754
0.623535	1.693851
0.624023	1.694171
0.624512	1.694178
0.625000	1.694012
0.625488	1.693972
0.625977	1.694024
0.626465	1.694161
0.626953	1.694116
0.627441	1.693877
0.627930	1.693840
0.628418	1.693983
0.628906	1.694128
0.629395	1.693797
0.629883	1.693733
0.630371	1.693790
0.630859	1.693813
0.631348	1.694075
0.631836	1.693860
0.632324	1.693818
0.632812	1.693734
0.633301	1.693970
0.633789	1.693811
0.634277	1.693832
0.634766	1.693629
0.635254	1.693584
0.635742	1.693813
0.636230	1.693766
0.636719	1.693495
0.637207	1.693338
0.637695	1.693618
0.638184	1.693744
0.638672	1.693728
0.639160	1.693585
0.639648	1.693657
0.640137	1.693699
0.640625	1.693764
0.641113	1.693838
0.641602	1.693760
0.642090	1.693583
0.642578	1.693692
0.643066	1.693732
0.643555	1.693714
0.644043	1.693824
0.644531	1.693805
0.645020	1.693417
0.645508	1.693828
0.645996	1.693879
0.646484	1.693859
0.646973	1.693758
0.647461	1.694001
0.647949	1.693806
0.648437	1.693804
0.648926	1.693650
0.649414	1.693874
0.649902	1.693974
0.650391	1.694029
0.650879	1.693901
0.651367	1.693694
0.651855	1.693757
0.652344	1.693915
0.652832	1.694156
0.653320	1.694093
0.653809	1.693856
0.654297	1.693929
0.654785	1.693966
0.655273	1.694239
0.655762	1.693837
0.656250	1.693671
0.656738	1.693949
0.657227	1.694126
0.657715	1.693974
0.658203	1.693981
0.658691	1.693767
0.659180	1.694007
0.659668	1.694150
0.660156	1.694172
0.660645	1.693724
0.661133	1.693863
0.661621	1.693940
0.662109	1.694084
0.662598	1.694071
0.663086	1.693834
0.663574	1.693752
0.664062	1.693743
0.664551	1.694070
0.665039	1.693963
0.665527	1.693716
0.666016	1.693638
0.666504	1.694027
0.666992	1.693999
0.667480	1.694176
0.667969	1.693962
0.668457	1.693991
0.668945	1.694175
0.669434	1.694208
0.669922	1.694156
0.670410	1.693713
0.670898	1.693890
0.671387	1.694251
0.671875	1.694018
0.672363	1.693649
0.672852	1.693696
0.673340	1.693609
0.673828	1.693934
0.674316	1.694372
0.674805	1.693710
0.675293	1.693582
0.675781	1.693822
0.676270	1.694104
0.676758	1.693995
0.677246	1.693877
0.677734	1.693729
0.678223	1.693750
0.678711	1.693876
0.679199	1.693965
0.679687	1.693799
0.680176	1.693683
0.680664	1.693805
0.681152	1.693918
0.681641	1.693862
0.682129	1.693876
0.682617	1.693952
0.683105	1.693826
0.683594	1.693877
0.684082	1.693925
0.684570	1.693857
0.685059	1.693569
0.685547	1.693673
0.686035	1.694041
0.686523	1.693816
0.687012	1.693514
0.687500	1.693637
0.687988	1.693863
0.688477	1.694120
0.688965	1.694035
0.689453	1.693915
0.689941	1.693969
0.690430	1.693962
0.690918	1.694068
0.691406	1.694001
0.691895	1.693885
0.692383	1.694097
0.692871	1.694054
0.693359	1.694179
0.693848	1.694100
0.694336	1.694112
0.694824	1.694125
0.695312	1.694189
0.695801	1.693865
0.696289	1.694096
0.696777	1.693896
0.697266	1.693939
0.697754	1.693923
0.698242	1.694085
0.698730	1.693890
0.699219	1.693882
0.699707	1.694172
0.700195	1.694181
0.700684	1.694322
0.701172	1.694100
0.701660	1.694188
0.702148	1.693951
0.702637	1.694096
0.703125	1.694297
0.703613	1.694138
0.704102	1.693779
0.704590	1.693851
0.705078	1.694059
0.705566	1.694307
0.706055	1.694388
0.706543	1.694243
0.707031	1.694307
0.707520	1.694166
0.708008	1.693966
0.708496	1.693933
0.708984	1.693914
0.709473	1.694126
0.709961	1.694291
0.710449	1.694157
0.710937	1.693932
0.711426	1.694073
0.711914	1.694155
0.712402	1.694080
0.712891	1.694158
0.713379	1.693620
0.713867	1.693735
0.714355	1.693816
0.714844	1.694093
0.715332	1.694071
0.715820	1.693854
0.716309	1.693976
0.716797	1.693774
0.717285	1.693832
0.717773	1.694065
0.718262	1.693803
0.718750	1.693716
0.719238	1.693965
0.719727	1.693998
0.720215	1.694029
0.720703	1.693973
0.721191	1.693769
0.721680	1.693855
0.722168	1.694018
0.722656	1.693722
0.723145	1.693895
0.723633	1.693806
0.724121	1.693854
0.724609	1.693889
0.725098	1.693778
0.725586	1.693702
0.726074	1.693843
0.726562	1.694079
0.727051	1.694009
0.727539	1.693807
0.728027	1.693566
0.728516	1.693940
0.729004	1.694136
0.729492	1.693938
0.729980	1.693957
0.730469	1.693714
0.730957	1.693855
0.731445	1.694372
0.731934	1.694401
0.732422	1.693832
0.732910	1.693972
0.733398	1.694290
0.733887	1.694414
0.734375	1.694268
0.734863	1.694131
0.735352	1.694155
0.735840	1.694241
0.736328	1.694168
0.736816	1.694222
0.737305	1.694040
0.737793	1.694243
0.738281	1.694426
0.738770	1.694253
0.739258	1.694108
0.739746	1.694288
0.740234	1.694258
0.740723	1.694463
0.741211	1.694460
0.741699	1.694372
0.742187	1.694161
0.742676	1.694002
0.743164	1.694455
0.743652	1.694429
0.744141	1.694259
0.744629	1.694053
0.745117	1.694271
0.745605	1.694400
0.746094	1.694865
0.746582	1.694495
0.747070	1.694208
0.747559	1.694499
0.748047	1.694784
0.748535	1.694538
0.749023	1.694408
0.749512	1.694391
0.750000	1.694574
0.750488	1.694627
0.750977	1.694366
0.751465	1.694485
0.751953	1.694359
0.752441	1.694532
0.752930	1.694632
0.753418	1.694291
0.753906	1.694369
0.754395	1.694439
0.754883	1.694404
0.755371	1.694468
0.755859	1.694414
0.756348	1.694449
0.756836	1.694287
0.757324	1.694217
0.757812	1.694521
0.758301	1.694350
0.758789	1.694367
0.759277	1.694254
0.759766	1.694660
0.760254	1.694708
0.760742	1.694605
0.761230	1.694516
0.761719	1.694596
0.762207	1.694586
0.762695	1.694520
0.763184	1.694494
0.763672	1.694241
0.764160	1.694215
0.764648	1.694320
0.765137	1.694633
0.765625	1.694404
0.766113	1.694483
0.766602	1.694342
0.767090	1.694454
0.767578	1.694524
0.768066	1.694425
0.768555	1.694279
0.769043	1.694102
0.769531	1.694408
0.770020	1.694524
0.770508	1.694237
0.770996	1.694107
0.771484	1.694413
0.771973	1.694471
0.772461	1.694826
0.772949	1.694609
0.773437	1.694602
0.773926	1.694546
0.774414	1.694420
0.774902	1.694471
0.775391	1.694318
0.775879	1.694566
0.776367	1.694535
0.776855	1.694621
0.777344	1.694626
0.777832	1.694461
0.778320	1.694352
0.778809	1.694805
0.779297	1.694622
0.779785	1.694400
0.780273	1.694381
0.780762	1.694670
0.781250	1.694627
0.781738	1.694768
0.782227	1.694400
0.782715	1.694510
0.783203	1.694504
0.783691	1.694982
0.784180	1.694461
0.784668	1.694553
0.785156	1.694323
0.785645	1.694510
0.786133	1.694649
0.786621	1.694623
0.787109	1.694331
0.787598	1.694526
0.788086	1.694463
0.788574	1.694641
0.789062	1.694550
0.789551	1.694375
0.790039	1.694478
0.790527	1.694536
0.791016	1.694593
0.791504	1.694438
0.791992	1.694345
0.792480	1.694300
0.792969	1.694398
0.793457	1.694407
0.793945	1.694315
0.794434	1.693943
0.794922	1.694260
0.795410	1.694665
0.795898	1.694392
0.796387	1.694089
0.796875	1.694321
0.797363	1.694413
0.797852	1.694464
0.798340	1.694465
0.798828	1.694284
0.799316	1.694306
0.799805	1.694254
0.800293	1.694527
0.800781	1.694385
0.801270	1.694336
0.801758	1.694333
0.802246	1.694294
0.802734	1.694147
0.803223	1.694475
0.803711	1.694304
0.804199	1.694068
0.804687	1.694157
0.805176	1.694343
0.805664	1.694366
0.806152	1.694111
0.806641	1.693951
0.807129	1.694300
0.807617	1.694396
0.808105	1.694367
0.808594	1.694104
0.809082	1.694104
0.809570	1.694254
0.810059	1.694435
0.810547	1.694304
0.811035	1.693943
0.811523	1.694316
0.812012	1.694174
0.812500	1.694465
0.812988	1.694539
0.813477	1.694225
0.813965	1.694136
0.814453	1.694304
0.814941	1.694596
0.815430	1.694550
0.815918	1.694325
0.816406	1.694373
0.816895	1.694349
0.817383	1.694311
0.817871	1.694394
0.818359	1.694242
0.818848	1.693932
0.819336	1.694257
0.819824	1.694678
0.820312	1.694465
0.820801	1.694275
0.821289	1.694214
0.821777	1.694627
0.822266	1.694528
0.822754	1.694375
0.823242	1.694330
0.823730	1.694298
0.824219	1.694361
0.824707	1.694447
0.825195	1.694384
0.825684	1.694320
0.826172	1.694425
0.826660	1.694497
0.827148	1.694443
0.827637	1.694420
0.828125	1.694455
0.828613	1.694590
0.829102	1.694737
0.829590	1.694693
0.830078	1.694822
0.830566	1.694608
0.831055	1.694844
0.831543	1.694655
0.832031	1.694573
0.832520	1.694760
0.833008	1.694630
0.833496	1.694471
0.833984	1.694547
0.834473	1.694491
0.834961	1.694516
0.835449	1.694966
0.835937	1.694740
0.836426	1.694752
0.836914	1.694713
0.837402	1.694420
0.837891	1.694502
0.838379	1.694611
0.838867	1.694726
0.839355	1.694558
0.839844	1.694738
0.840332	1.694652
0.840820	1.694907
0.841309	1.694892
0.841797	1.694519
0.842285	1.694627
0.842773	1.695081
0.843262	1.694712
0.843750	1.694438
0.844238	1.694689
0.844727	1.694611
0.845215	1.694798
0.845703	1.694715
0.846191	1.694581
0.846680	1.694443
0.847168	1.694204
0.847656	1.694250
0.848145	1.694613
0.848633	1.694656
0.849121	1.694436
0.849609	1.694288
0.850098	1.694466
0.850586	1.694629
0.851074	1.694648
0.851562	1.694505
0.852051	1.694214
0.852539	1.694680
0.853027	1.694765
0.853516	1.694599
0.854004	1.694619
0.854492	1.694484
0.854980	1.694750
0.855469	1.694458
0.855957	1.694412
0.856445	1.694578
0.856934	1.694424
0.857422	1.694239
0.857910	1.694356
0.858398	1.694319
0.858887	1.694403
0.859375	1.694723
0.859863	1.694530
0.860352	1.694628
0.860840	1.694272
0.861328	1.694234
0.861816	1.694295
0.862305	1.694421
0.862793	1.694270
0.863281	1.694171
0.863770	1.694130
0.864258	1.694191
0.864746	1.694150
0.865234	1.694281
0.865723	1.694067
0.866211	1.694296
0.866699	1.694541
0.867187	1.694383
0.867676	1.694418
0.868164	1.694290
0.868652	1.694166
0.869141	1.694070
0.869629	1.694380
0.870117	1.694443
0.870605	1.694451
0.871094	1.694267
0.871582	1.694310
0.872070	1.694406
0.872559	1.694327
0.873047	1.694168
0.873535	1.694121
0.874023	1.694389
0.874512	1.694289
0.875000	1.694295
0.875488	1.694160
0.875977	1.693849
0.876465	1.693994
0.876953	1.694116
0.877441	1.694300
0.877930	1.694275
0.878418	1.694012
0.878906	1.694244
0.879395	1.694162
0.879883	1.694372
0.880371	1.694386
0.880859	1.694109
0.881348	1.694500
0.881836	1.694306
0.882324	1.694274
0.882812	1.694160
0.883301	1.694228
0.883789	1.694264
0.884277	1.694251
0.884766	1.693971
0.885254	1.694050
0.885742	1.694103
0.886230	1.694327
0.886719	1.694031
0.887207	1.693896
0.887695	1.694073
0.888184	1.693976
0.888672	1.694158
0.889160	1.694101
0.889648	1.693907
0.890137	1.694153
0.890625	1.694447
0.891113	1.694150
0.891602	1.694298
0.892090	1.693842
0.892578	1.693678
0.893066	1.693862
0.893555	1.694092
0.894043	1.694230
0.894531	1.694180
0.895020	1.694106
0.895508	1.694215
0.895996	1.694207
0.896484	1.694270
0.896973	1.694278
0.897461	1.693971
0.897949	1.694005
0.898437	1.694151
0.898926	1.694234
0.899414	1.693954
0.899902	1.693906
0.900391	1.693967
0.900879	1.693979
0.901367	1.694087
0.901855	1.694056
0.902344	1.694013
0.902832	1.694198
0.903320	1.693938
0.903809	1.694031
0.904297	1.693999
0.904785	1.694135
0.905273	1.694388
0.905762	1.694222
0.906250	1.694027
0.906738	1.694091
0.907227	1.694149
0.907715	1.694291
0.908203	1.694342
0.908691	1.694353
0.909180	1.694103
0.909668	1.693980
0.910156	1.694381
0.910645	1.694643
0.911133	1.694375
0.911621	1.694276
0.912109	1.694143
0.912598	1.694175
0.913086	1.694193
0.913574	1.694076
0.914062	1.694224
0.914551	1.694260
0.915039	1.694381
0.915527	1.694342
0.916016	1.694285
0.916504	1.694245
0.916992	1.694211
0.917480	1.694431
0.917969	1.694303
0.918457	1.694115
0.918945	1.694079
0.919434	1.694234
0.919922	1.694375
0.920410	1.694439
0.920898	1.694229
0.921387	1.694321
0.921875	1.694465
0.922363	1.694599
0.922852	1.694524
0.923340	1.694104
0.923828	1.694242
0.924316	1.694658
0.924805	1.694454
0.925293	1.694397
0.925781	1.694321
0.926270	1.694306
0.926758	1.694513
0.927246	1.694539
0.927734	1.694367
0.928223	1.694239
0.928711	1.694325
0.929199	1.694273
0.929687	1.694293
0.930176	1.694339
0.930664	1.693968
0.931152	1.694027
0.931641	1.694232
0.932129	1.694176
0.932617	1.694248
0.933105	1.694036
0.933594	1.694108
0.934082	1.694409
0.934570	1.694522
0.935059	1.694279
0.935547	1.694164
0.936035	1.694322
0.936523	1.694327
0.937012	1.694316
0.937500	1.694167
0.937988	1.694123
0.938477	1.694291
0.938965	1.694454
0.939453	1.694336
0.939941	1.694012
0.940430	1.694029
0.940918	1.694147
0.941406	1.694223
0.941895	1.694098
0.942383	1.693841
0.942871	1.693754
0.943359	1.694006
0.943848	1.694020
0.944336	1.693854
0.944824	1.693734
0.945312	1.693840
0.945801	1.693923
0.946289	1.694071
0.946777	1.693979
0.947266	1.693863
0.947754	1.693748
0.948242	1.693974
0.948730	1.694185
0.949219	1.693974
0.949707	1.693877
0.950195	1.693932
0.950684	1.694151
0.951172	1.694118
0.951660	1.694210
0.952148	1.693923
0.952637	1.693865
0.953125	1.694022
0.953613	1.693993
0.954102	1.693904
0.954590	1.693741
0.955078	1.693856
0.955566	1.694175
0.956055	1.693957
0.956543	1.693726
0.957031	1.693759
0.957520	1.693751
0.958008	1.694071
0.958496	1.694054
0.958984	1.693722
0.959473	1.693779
0.959961	1.693790
0.960449	1.694120
0.960937	1.693962
0.961426	1.693871
0.961914	1.693983
0.962402	1.693973
0.962891	1.694130
0.963379	1.694151
0.963867	1.693999
0.964355	1.693887
0.964844	1.694162
0.965332	1.693993
0.965820	1.694059
0.966309	1.694072
0.966797	1.693898
0.967285	1.693843
0.967773	1.694037
0.968262	1.693985
0.968750	1.693849
0.969238	1.693719
0.969727	1.693882
0.970215	1.694278
0.970703	1.693968
0.971191	1.693697
0.971680	1.693656
0.972168	1.693892
0.972656	1.694293
0.973145	1.694012
0.973633	1.693699
0.974121	1.693910
0.974609	1.693968
0.975098	1.694269
0.975586	1.693927
0.976074	1.693837
0.976562	1.694008
0.977051	1.694049
0.977539	1.694109
0.978027	1.693892
0.978516	1.693839
0.979004	1.693880
0.979492	1.694011
0.979980	1.694022
0.980469	1.694058
0.980957	1.693445
0.981445	1.693827
0.981934	1.693869
0.982422	1.693976
0.982910	1.693509
0.983398	1.693945
0.983887	1.693752
0.984375	1.694040
0.984863	1.694131
0.985352	1.693881
0.985840	1.693662
0.986328	1.693899
0.986816	1.694036
0.987305	1.693914
0.987793	1.693750
0.988281	1.693628
0.988770	1.693686
0.989258	1.693782
0.989746	1.694046
0.990234	1.693970
0.990723	1.693633
0.991211	1.693761
0.991699	1.694133
0.992187	1.693841
0.992676	1.693935
0.993164	1.693818
0.993652	1.693793
0.994141	1.693984
0.994629	1.694004
0.995117	1.693628
0.995605	1.693284
0.996094	1.693876
0.996582	1.693969
0.997070	1.693664
0.997559	1.693520
0.998047	1.693661
0.998535	1.693724
0.999023	1.694124
0.999512	1.694009
1.000000	1.693888
1.000488	1.694026
1.000977	1.694068
1.001465	1.694228
1.001953	1.694085
1.002441	1.693962
1.002930	1.694107
1.003418	1.693977
1.003906	1.694126
1.004395	1.694070
1.004883	1.693779
1.005371	1.694056
1.005859	1.694278
1.006348	1.694065
1.006836	1.693987
1.007324	1.694225
1.007812	1.694045
1.008301	1.694127
1.008789	1.694093
1.009277	1.694114
1.009766	1.694016
1.010254	1.694132
1.010742	1.694284
1.011230	1.694427
1.011719	1.694120
1.012207	1.693951
1.012695	1.694337
1.013184	1.694354
1.013672	1.694170
1.014160	1.694093
1.014648	1.693922
1.015137	1.694382
1.015625	1.694784
1.016113	1.694509
1.016602	1.694223
1.017090	1.694242
1.017578	1.694391
1.018066	1.694527
1.018555	1.694386
1.019043	1.694360
1.019531	1.694462
1.020020	1.694710
1.020508	1.694571
1.020996	1.694394
1.021484	1.694359
1.021973	1.694257
1.022461	1.694389
1.022949	1.694839
1.023437	1.694192
1.023926	1.693966
1.024414	1.694214
1.024902	1.694426
1.025391	1.694432
1.025879	1.694223
1.026367	1.694285
1.026855	1.694306
1.027344	1.694245
1.027832	1.694371
1.028320	1.694342
1.028809	1.694227
1.029297	1.694200
1.029785	1.694521
1.030273	1.694557
1.030762	1.694408
1.031250	1.694331
1.031738	1.694471
1.032227	1.694428
1.032715	1.694561
1.033203	1.694232
1.033691	1.694295
1.034180	1.694217
1.034668	1.694662
1.035156	1.694334
1.035645	1.694090
1.036133	1.693941
1.036621	1.694178
1.037109	1.694361
1.037598	1.694539
1.038086	1.694201
1.038574	1.694065
1.039062	1.694367
1.039551	1.694506
1.040039	1.694275
1.040527	1.694183
1.041016	1.694195
1.041504	1.694377
1.041992	1.694307
1.042480	1.694350
1.042969	1.694265
1.043457	1.694217
1.043945	1.694427
1.044434	1.694425
1.044922	1.694160
1.045410	1.694395
1.045898	1.694322
1.046387	1.694439
1.046875	1.694275
1.047363	1.694389
1.047852	1.694161
1.048340	1.693955
1.048828	1.694225
1.049316	1.694483
1.049805	1.694227
1.050293	1.694142
1.050781	1.694295
1.051270	1.694236
1.051758	1.694428
1.052246	1.694483
1.052734	1.693999
1.053223	1.694098
1.053711	1.694182
1.054199	1.694377
1.054687	1.694173
1.055176	1.694090
1.055664	1.694276
1.056152	1.694435
1.056641	1.694455
1.057129	1.694264
1.057617	1.694234
1.058105	1.694419
1.058594	1.694345
1.059082	1.694295
1.059570	1.694226
1.060059	1.694079
1.060547	1.694369
1.061035	1.694386
1.061523	1.694353
1.062012	1.693962
1.062500	1.694184
1.062988	1.694505
1.063477	1.694337
1.063965	1.694550
1.064453	1.694259
1.064941	1.694299
1.065430	1.694289
1.065918	1.694488
1.066406	1.694320
1.066895	1.694143
1.067383	1.694145
1.067871	1.694401
1.068359	1.694403
1.068848	1.694297
1.069336	1.694322
1.069824	1.694397
1.070312	1.694508
1.070801	1.694408
1.071289	1.694414
1.071777	1.694183
1.072266	1.694378
1.072754	1.694353
1.073242	1.694411
1.073730	1.694067
1.074219	1.694131
1.074707	1.694157
1.075195	1.694218
1.075684	1.694037
1.076172	1.694143
1.076660	1.694054
1.077148	1.694348
1.077637	1.694446
1.078125	1.694197
1.078613	1.694218
1.079102	1.694104
1.079590	1.694289
1.080078	1.694417
1.080566	1.694166
1.081055	1.694284
1.081543	1.694298
1.082031	1.694253
1.082520	1.694464
1.083008	1.694466
1.083496	1.694140
1.083984	1.694553
1.084473	1.694378
1.084961	1.694358
1.085449	1.694228
1.085937	1.694082
1.086426	1.694496
1.086914	1.694484
1.087402	1.694363
1.087891	1.694203
1.088379	1.694051
1.088867	1.694219
1.089355	1.694477
1.089844	1.694402
1.090332	1.694168
1.090820	1.694101
1.091309	1.694391
1.091797	1.694472
1.092285	1.694516
1.092773	1.694237
1.093262	1.694070
1.093750	1.694007
1.094238	1.694330
1.094727	1.694607
1.095215	1.694240
1.095703	1.693988
1.096191	1.694503
1.096680	1.694625
1.097168	1.694546
1.097656	1.694351
1.098145	1.694248
1.098633	1.694404
1.099121	1.694714
1.099609	1.694690
1.100098	1.694117
1.100586	1.694208
1.101074	1.694652
1.101562	1.694587
1.102051	1.694173
1.102539	1.694068
1.103027	1.694164
1.103516	1.694330
1.104004	1.694643
1.104492	1.694323
1.104980	1.694267
1.105469	1.694233
1.105957	1.694401
1.106445	1.694282
1.106934	1.694225
1.107422	1.694143
1.107910	1.694251
1.108398	1.694240
1.108887	1.694318
1.109375	1.694464
1.109863	1.694215
1.110352	1.694478
1.110840	1.694234
1.111328	1.694287
1.111816	1.694085
1.112305	1.694120
1.112793	1.694235
1.113281	1.694228
1.113770	1.694220
1.114258	1.694132
1.114746	1.693797
1.115234	1.693991
1.115723	1.694192
1.116211	1.694179
1.116699	1.693726
1.117187	1.694010
1.117676	1.694151
1.118164	1.694382
1.118652	1.694148
1.119141	1.694049
1.119629	1.694048
1.120117	1.694356
1.120605	1.694175
1.121094	1.693962
1.121582	1.693855
1.122070	1.694098
1.122559	1.693990
1.123047	1.694157
1.123535	1.693837
1.124023	1.693704
1.124512	1.693949
1.125000	1.694156
1.125488	1.693979
1.125977	1.693958
1.126465	1.693885
1.126953	1.693983
1.127441	1.694250
1.127930	1.694179
1.128418	1.694036
1.128906	1.694001
1.129395	1.694064
1.129883	1.694061
1.130371	1.693970
1.130859	1.694026
1.131348	1.694082
1.131836	1.693832
1.132324	1.693984
1.132812	1.693871
1.133301	1.693915
1.133789	1.693749
1.134277	1.693882
1.134766	1.693840
1.135254	1.694061
1.135742	1.693979
1.136230	1.694002
1.136719	1.694183
1.137207	1.694264
1.137695	1.694159
1.138184	1.693989
1.138672	1.694148
1.139160	1.694027
1.139648	1.693854
1.140137	1.694143
1.140625	1.694050
1.141113	1.693719
1.141602	1.693885
1.142090	1.694121
1.142578	1.693927
1.143066	1.694115
1.143555	1.693813
1.144043	1.693881
1.144531	1.694051
1.145020	1.694053
1.145508	1.693980
1.145996	1.693948
1.146484	1.694096
1.146973	1.694129
1.147461	1.694227
1.147949	1.694081
1.148437	1.693898
1.148926	1.694198
1.149414	1.694148
1.149902	1.694284
1.150391	1.694159
1.150879	1.694284
1.151367	1.694186
1.151855	1.694507
1.152344	1.694447
1.152832	1.694308
1.153320	1.694173
1.153809	1.694707
1.154297	1.694605
1.154785	1.694607
1.155273	1.694462
1.155762	1.694411
1.156250	1.694436
1.156738	1.694382
1.157227	1.694378
1.157715	1.694448
1.158203	1.694441
1.158691	1.694529
1.159180	1.694318
1.159668	1.694290
1.160156	1.694435
1.160645	1.694369
1.161133	1.694232
1.161621	1.694552
1.162109	1.694521
1.162598	1.694428
1.163086	1.694657
1.163574	1.694640
1.164062	1.694605
1.164551	1.694486
1.165039	1.694345
1.165527	1.694611
1.166016	1.694624
1.166504	1.694619
1.166992	1.694408
1.167480	1.694363
1.167969	1.694491
1.168457	1.694674
1.168945	1.694427
1.169434	1.694387
1.169922	1.694363
1.170410	1.694590
1.170898	1.694411
1.171387	1.694508
1.171875	1.694308
1.172363	1.694472
1.172852	1.694513
1.173340	1.694511
1.173828	1.694210
1.174316	1.694391
1.174805	1.694330
1.175293	1.694546
1.175781	1.694448
1.176270	1.694575
1.176758	1.694306
1.177246	1.694600
1.177734	1.694809
1.178223	1.694743
1.178711	1.694678
1.179199	1.694615
1.179687	1.694676
1.180176	1.694693
1.180664	1.694624
1.181152	1.694743
1.181641	1.694618
1.182129	1.694648
1.182617	1.694706
1.183105	1.694511
1.183594	1.694549
1.184082	1.694451
1.184570	1.694519
1.185059	1.694677
1.185547	1.694713
1.186035	1.694594
1.186523	1.694415
1.187012	1.694608
1.187500	1.694652
1.187988	1.694538
1.188477	1.694322
1.188965	1.694510
1.189453	1.694645
1.189941	1.694811
1.190430	1.694797
1.190918	1.694522
1.191406	1.694412
1.191895	1.694835
1.192383	1.694791
1.192871	1.694610
1.193359	1.694456
1.193848	1.694584
1.194336	1.694660
1.194824	1.694414
1.195312	1.694428
1.195801	1.694630
1.196289	1.694531
1.196777	1.694661
1.197266	1.694626
1.197754	1.694331
1.198242	1.694460
1.198730	1.694816
1.199219	1.694843
1.199707	1.694739
1.200195	1.694316
1.200684	1.694242
1.201172	1.694375
1.201660	1.694435
1.202148	1.694529
1.202637	1.694282
1.203125	1.694392
1.203613	1.694269
1.204102	1.694681
1.204590	1.694510
1.205078	1.694343
1.205566	1.694319
1.206055	1.694265
1.206543	1.694519
1.207031	1.694402
1.207520	1.694224
1.208008	1.694023
1.208496	1.694478
1.208984	1.694425
1.209473	1.694532
1.209961	1.694342
1.210449	1.694421
1.210937	1.694301
1.211426	1.694281
1.211914	1.694341
1.212402	1.694230
1.212891	1.694051
1.213379	1.694152
1.213867	1.694073
1.214355	1.693995
1.214844	1.694249
1.215332	1.694283
1.215820	1.694040
1.216309	1.694249
1.216797	1.694405
1.217285	1.694306
1.217773	1.694243
1.218262	1.694427
1.218750	1.694353
1.219238	1.694306
1.219727	1.694183
1.220215	1.694414
1.220703	1.694264
1.221191	1.694353
1.221680	1.694280
1.222168	1.693924
1.222656	1.694040
1.223145	1.694204
1.223633	1.693959
1.224121	1.694312
1.224609	1.694029
1.225098	1.694019
1.225586	1.694165
1.226074	1.694272
1.226562	1.694071
1.227051	1.693969
1.227539	1.693999
1.228027	1.694290
1.228516	1.694245
1.229004	1.694042
1.229492	1.694259
1.229980	1.694310
1.230469	1.694644
1.230957	1.694414
1.231445	1.694337
1.231934	1.694337
1.232422	1.694461
1.232910	1.694682
1.233398	1.694665
1.233887	1.694352
1.234375	1.694475
1.234863	1.694336
1.235352	1.694622
1.235840	1.694418
1.236328	1.694235
1.236816	1.694184
1.237305	1.694507
1.237793	1.694510
1.238281	1.694384
1.238770	1.694381
1.239258	1.694521
1.239746	1.694480
1.240234	1.694722
1.240723	1.694420
1.241211	1.694363
1.241699	1.694526
1.242187	1.694685
1.242676	1.694792
1.243164	1.694414
1.243652	1.694421
1.244141	1.694887
1.244629	1.694876
1.245117	1.694965
1.245605	1.694799
1.246094	1.694732
1.246582	1.694734
1.247070	1.694859
1.247559	1.694833
1.248047	1.694662
1.248535	1.694474
1.249023	1.694489
1.249512	1.694500
1.250000	1.694640
1.250488	1.694914
1.250977	1.694522
1.251465	1.694309
1.251953	1.694780
1.252441	1.694843
1.252930	1.694887
1.253418	1.694746
1.253906	1.694752
1.254395	1.694931
1.254883	1.694680
1.255371	1.694746
1.255859	1.694726
1.256348	1.694973
1.256836	1.694900
1.257324	1.694832
1.257812	1.694797
1.258301	1.694954
1.258789	1.694981
1.259277	1.694973
1.259766	1.694651
1.260254	1.694898
1.260742	1.694890
1.261230	1.694824
1.261719	1.694954
1.262207	1.694472
1.262695	1.694445
1.263184	1.694807
1.263672	1.694965
1.264160	1.694795
1.264648	1.694754
1.265137	1.694464
1.265625	1.694691
1.266113	1.694899
1.266602	1.694965
1.267090	1.694668
1.267578	1.694638
1.268066	1.694638
1.268555	1.694812
1.269043	1.694847
1.269531	1.694570
1.270020	1.694649
1.270508	1.695073
1.270996	1.695157
1.271484	1.694957
1.271973	1.694961
1.272461	1.694523
1.272949	1.694835
1.273437	1.695128
1.273926	1.694853
1.274414	1.694647
1.274902	1.694806
1.275391	1.694885
1.275879	1.694940
1.276367	1.694855
1.276855	1.694614
1.277344	1.694655
1.277832	1.694817
1.278320	1.694671
1.278809	1.694611
1.279297	1.694434
1.279785	1.694646
1.280273	1.695037
1.280762	1.694971
1.281250	1.694713
1.281738	1.694634
1.282227	1.694676
1.282715	1.694946
1.283203	1.694829
1.283691	1.694807
1.284180	1.694568
1.284668	1.694854
1.285156	1.694903
1.285645	1.694899
1.286133	1.694838
1.286621	1.694615
1.287109	1.694718
1.287598	1.694976
1.288086	1.694665
1.288574	1.694717
1.289062	1.694730
1.289551	1.694730
1.290039	1.695060
1.290527	1.694854
1.291016	1.694549
1.291504	1.694291
1.291992	1.694624
1.292480	1.694833
1.292969	1.694649
1.293457	1.694102
1.293945	1.694381
1.294434	1.694585
1.294922	1.694660
1.295410	1.694873
1.295898	1.694312
1.296387	1.694305
1.296875	1.694461
1.297363	1.694577
1.297852	1.694377
1.298340	1.694308
1.298828	1.694283
1.299316	1.694460
1.299805	1.694408
1.300293	1.694447
1.300781	1.694450
1.301270	1.694258
1.301758	1.694248
1.302246	1.694453
1.302734	1.694368
1.303223	1.694255
1.303711	1.694276
1.304199	1.694336
1.304687	1.694386
1.305176	1.694072
1.305664	1.694185
1.306152	1.693909
1.306641	1.693976
1.307129	1.694312
1.307617	1.694072
1.308105	1.693689
1.308594	1.694031
1.309082	1.694436
1.309570	1.694120
1.310059	1.694020
1.310547	1.694279
1.311035	1.694380
1.311523	1.694117
1.312012	1.694058
1.312500	1.694359
1.312988	1.694258
1.313477	1.694031
1.313965	1.694146
1.314453	1.694099
1.314941	1.694117
1.315430	1.694361
1.315918	1.694002
1.316406	1.694083
1.316895	1.694135
1.317383	1.694053
1.317871	1.694042
1.318359	1.694096
1.318848	1.694192
1.319336	1.694262
1.319824	1.694017
1.320312	1.694228
1.320801	1.694377
1.321289	1.694220
1.321777	1.693985
1.322266	1.694066
1.322754	1.694134
1.323242	1.694366
1.323730	1.694482
1.324219	1.694248
1.324707	1.694198
1.325195	1.694571
1.325684	1.694669
1.326172	1.694359
1.326660	1.694361
1.327148	1.694440
1.327637	1.694330
1.328125	1.694342
1.328613	1.694345
1.329102	1.694137
1.329590	1.694203
1.330078	1.694623
1.330566	1.694383
1.331055	1.694397
1.331543	1.694381
1.332031	1.694403
1.332520	1.694541
1.333008	1.694661
1.333496	1.694381
1.333984	1.694384
1.334473	1.694230
1.334961	1.694486
1.335449	1.694492
1.335937	1.694325
1.336426	1.694416
1.336914	1.694557
1.337402	1.694514
1.337891	1.694809
1.338379	1.694680
1.338867	1.694538
1.339355	1.694601
1.339844	1.694772
1.340332	1.694789
1.340820	1.694508
1.341309	1.694497
1.341797	1.694735
1.342285	1.694768
1.342773	1.694668
1.343262	1.694626
1.343750	1.694416
1.344238	1.694489
1.344727	1.694716
1.345215	1.694647
1.345703	1.694625
1.346191	1.694579
1.346680	1.694685
1.347168	1.694662
1.347656	1.694727
1.348145	1.694619
1.348633	1.694400
1.349121	1.694373
1.349609	1.694804
1.350098	1.695056
1.350586	1.694439
1.351074	1.694454
1.351562	1.694891
1.352051	1.695016
1.352539	1.694834
1.353027	1.694769
1.353516	1.694355
1.354004	1.694825
1.354492	1.694817
1.354980	1.694798
1.355469	1.694624
1.355957	1.694590
1.356445	1.694885
1.356934	1.694735
1.357422	1.694583
1.357910	1.694591
1.358398	1.694624
1.358887	1.694829
1.359375	1.694836
1.359863	1.694713
1.360352	1.694662
1.360840	1.694425
1.361328	1.694740
1.361816	1.695125
1.362305	1.694644
1.362793	1.694182
1.363281	1.694626
1.363770	1.694680
1.364258	1.694882
1.364746	1.694733
1.365234	1.694564
1.365723	1.694595
1.366211	1.694603
1.366699	1.694854
1.367187	1.694528
1.367676	1.694456
1.368164	1.694361
1.368652	1.694547
1.369141	1.694499
1.369629	1.694527
1.370117	1.694358
1.370605	1.694422
1.371094	1.694613
1.371582	1.694521
1.372070	1.694342
1.372559	1.694248
1.373047	1.694429
1.373535	1.694495
1.374023	1.694453
1.374512	1.694376
1.375000	1.694145
1.375488	1.694284
1.375977	1.694418
1.376465	1.694457
1.376953	1.694198
1.377441	1.694225
1.377930	1.694283
1.378418	1.694579
1.378906	1.694212
1.379395	1.694125
1.379883	1.693985
1.380371	1.694241
1.380859	1.694223
1.381348	1.694245
1.381836	1.694299
1.382324	1.694028
1.382812	1.694412
1.383301	1.694185
1.383789	1.694022
1.384277	1.693657
1.384766	1.693704
1.385254	1.694086
1.385742	1.694107
1.386230	1.693892
1.386719	1.693772
1.387207	1.693807
1.387695	1.694051
1.388184	1.693901
1.388672	1.693839
1.389160	1.693612
1.389648	1.693785
1.390137	1.694021
1.390625	1.693950
1.391113	1.693853
1.391602	1.693776
1.392090	1.693883
1.392578	1.693893
1.393066	1.694072
1.393555	1.693665
1.394043	1.693652
1.394531	1.693773
1.395020	1.693858
1.395508	1.693653
1.395996	1.693848
1.396484	1.693747
1.396973	1.693661
1.397461	1.694029
1.397949	1.693801
1.398437	1.693818
1.398926	1.693441
1.399414	1.693603
1.399902	1.694093
1.400391	1.693839
1.400879	1.693451
1.401367	1.693572
1.401855	1.693733
1.402344	1.693805
1.402832	1.694058
1.403320	1.693434
1.403809	1.693344
1.404297	1.693913
1.404785	1.694090
1.405273	1.693923
1.405762	1.693860
1.406250	1.693739
1.406738	1.693988
1.407227	1.693805
1.407715	1.693959
1.408203	1.693877
1.408691	1.693769
1.409180	1.693848
1.409668	1.694193
1.410156	1.694012
1.410645	1.694120
1.411133	1.694115
1.411621	1.694168
1.412109	1.694152
1.412598	1.694318
1.413086	1.694053
1.413574	1.693988
1.414062	1.694180
1.414551	1.694425
1.415039	1.694341
1.415527	1.694249
1.416016	1.694023
1.416504	1.694275
1.416992	1.694361
1.417480	1.694403
1.417969	1.694114
1.418457	1.694170
1.418945	1.694550
1.419434	1.694636
1.419922	1.694533
1.420410	1.694481
1.420898	1.694314
1.421387	1.694789
1.421875	1.694621
1.422363	1.694593
1.422852	1.694453
1.423340	1.694552
1.423828	1.694864
1.424316	1.694672
1.424805	1.694358
1.425293	1.694504
1.425781	1.694685
1.426270	1.694712
1.426758	1.694603
1.427246	1.694550
1.427734	1.694481
1.428223	1.694644
1.428711	1.694846
1.429199	1.694632
1.429687	1.694400
1.430176	1.694474
1.430664	1.694863
1.431152	1.694823
1.431641	1.694884
1.432129	1.694630
1.432617	1.694781
1.433105	1.694871
1.433594	1.694842
1.434082	1.694647
1.434570	1.694390
1.435059	1.694758
1.435547	1.695048
1.436035	1.694741
1.436523	1.694707
1.437012	1.694619
1.437500	1.694518
1.437988	1.694892
1.438477	1.694883
1.438965	1.694737
1.439453	1.694600
1.439941	1.694845
1.440430	1.694931
1.440918	1.694847
1.441406	1.694680
1.441895	1.694529
1.442383	1.694550
1.442871	1.694674
1.443359	1.694669
1.443848	1.694422
1.444336	1.694290
1.444824	1.694662
1.445312	1.694874
1.445801	1.694644
1.446289	1.694891
1.446777	1.694573
1.447266	1.694903
1.447754	1.694979
1.448242	1.694800
1.448730	1.694563
1.449219	1.694622
1.449707	1.694934
1.450195	1.695089
1.450684	1.694732
1.451172	1.694675
1.451660	1.694478
1.452148	1.694782
1.452637	1.694690
1.453125	1.694539
1.453613	1.694264
1.454102	1.694573
1.454590	1.694806
1.455078	1.694668
1.455566	1.694621
1.456055	1.694555
1.456543	1.694677
1.457031	1.694664
1.457520	1.694726
1.458008	1.694627
1.458496	1.694431
1.458984	1.694492
1.459473	1.694800
1.459961	1.694744
1.460449	1.694564
1.460937	1.694656
1.461426	1.694544
1.461914	1.694693
1.462402	1.694765
1.462891	1.694618
1.463379	1.694189
1.463867	1.694229
1.464355	1.694755
1.464844	1.694646
1.465332	1.694345
1.465820	1.694331
1.466309	1.694538
1.466797	1.694516
1.467285	1.694810
1.467773	1.694556
1.468262	1.694197
1.468750	1.694511
1.469238	1.694813
1.469727	1.694557
1.470215	1.694361
1.470703	1.694277
1.471191	1.694504
1.471680	1.694414
1.472168	1.694169
1.472656	1.694537
1.473145	1.694634
1.473633	1.694587
1.474121	1.694654
1.474609	1.694207
1.475098	1.694085
1.475586	1.694337
1.476074	1.694571
1.476562	1.694494
1.477051	1.694312
1.477539	1.694220
1.478027	1.694308
1.478516	1.694403
1.479004	1.694367
1.479492	1.694106
1.479980	1.694367
1.480469	1.694460
1.480957	1.693921
1.481445	1.694275
1.481934	1.694252
1.482422	1.694164
1.482910	1.694246
1.483398	1.694252
1.483887	1.694250
1.484375	1.694081
1.484863	1.694164
1.485352	1.694356
1.485840	1.694276
1.486328	1.694562
1.486816	1.694362
1.487305	1.694244
1.487793	1.694245
1.488281	1.694434
1.488770	1.694331
1.489258	1.694339
1.489746	1.694237
1.490234	1.694244
1.490723	1.694417
1.491211	1.694340
1.491699	1.694122
1.492187	1.693924
1.492676	1.694320
1.493164	1.694397
1.493652	1.694073
1.494141	1.693959
1.494629	1.694163
1.495117	1.694284
1.495605	1.694673
1.496094	1.694392
1.496582	1.694182
1.497070	1.694238
1.497559	1.694271
1.498047	1.694431
1.498535	1.694434
1.499023	1.694339
1.499512	1.694475
1.500000	1.694603
1.500488	1.694555
1.500977	1.694838
1.501465	1.694719
1.501953	1.694324
1.502441	1.694682
1.502930	1.694698
1.503418	1.694424
1.503906	1.694442
1.504395	1.694464
1.504883	1.694512
1.505371	1.694607
1.505859	1.694234
1.506348	1.694314
1.506836	1.694161
1.507324	1.694568
1.507812	1.694452
1.508301	1.694258
1.508789	1.694287
1.509277	1.694631
1.509766	1.694499
1.510254	1.694849
1.510742	1.694453
1.511230	1.694329
1.511719	1.694698
1.512207	1.694831
1.512695	1.694868
1.513184	1.694722
1.513672	1.694524
1.514160	1.694851
1.514648	1.694570
1.515137	1.694758
1.515625	1.694397
1.516113	1.694486
1.516602	1.694482
1.517090	1.694708
1.517578	1.694497
1.518066	1.694560
1.518555	1.694558
1.519043	1.694663
1.519531	1.694820
1.520020	1.694669
1.520508	1.694378
1.520996	1.694518
1.521484	1.694614
1.521973	1.694894
1.522461	1.694534
1.522949	1.694359
1.523437	1.694350
1.523926	1.694329
1.524414	1.694674
1.524902	1.694450
1.525391	1.694209
1.525879	1.694360
1.526367	1.694812
1.526855	1.694728
1.527344	1.694436
1.527832	1.694450
1.528320	1.694629
1.528809	1.694703
1.529297	1.694511
1.529785	1.694571
1.530273	1.694564
1.530762	1.694655
1.531250	1.694598
1.531738	1.694673
1.532227	1.694272
1.532715	1.694431
1.533203	1.694485
1.533691	1.694760
1.534180	1.694694
1.534668	1.694565
1.535156	1.694534
1.535645	1.694156
1.536133	1.694467
1.536621	1.694499
1.537109	1.694110
1.537598	1.694167
1.538086	1.694308
1.538574	1.694301
1.539062	1.694532
1.539551	1.694586
1.540039	1.694309
1.540527	1.694655
1.541016	1.694827
1.541504	1.694567
1.541992	1.694523
1.542480	1.694594
1.542969	1.694783
1.543457	1.694622
1.543945	1.694441
1.544434	1.694309
1.544922	1.693998
1.545410	1.694702
1.545898	1.694754
1.546387	1.694350
1.546875	1.694081
1.547363	1.694373
1.547852	1.694392
1.548340	1.694702
1.548828	1.694403
1.549316	1.694212
1.549805	1.694346
1.550293	1.694706
1.550781	1.694446
1.551270	1.694364
1.551758	1.694281
1.552246	1.694512
1.552734	1.694453
1.553223	1.694400
1.553711	1.694264
1.554199	1.694386
1.554687	1.694621
1.555176	1.694714
1.555664	1.694337
1.556152	1.694306
1.556641	1.694380
1.557129	1.694491
1.557617	1.694586
1.558105	1.694498
1.558594	1.694289
1.559082	1.694253
1.559570	1.694442
1.560059	1.694560
1.560547	1.694327
1.561035	1.694298
1.561523	1.694367
1.562012	1.694362
1.562500	1.694505
1.562988	1.694469
1.563477	1.694222
1.563965	1.694071
1.564453	1.694507
1.564941	1.694313
1.565430	1.694333
1.565918	1.694241
1.566406	1.694388
1.566895	1.694430
1.567383	1.694532
1.567871	1.694300
1.568359	1.694364
1.568848	1.694218
1.569336	1.694594
1.569824	1.694280
1.570312	1.694128
1.570801	1.694208
1.571289	1.694071
1.571777	1.694522
1.572266	1.694301
1.572754	1.694116
1.573242	1.694120
1.573730	1.694175
1.574219	1.694237
1.574707	1.694107
1.575195	1.694115
1.575684	1.694356
1.576172	1.694236
1.576660	1.694383
1.577148	1.694122
1.577637	1.694123
1.578125	1.694267
1.578613	1.694268
1.579102	1.694343
1.579590	1.694291
1.580078	1.694401
1.580566	1.694411
1.581055	1.694597
1.581543	1.694539
1.582031	1.694214
1.582520	1.694186
1.583008	1.694215
1.583496	1.694439
1.583984	1.694269
1.584473	1.694278
1.584961	1.694188
1.585449	1.694209
1.585937	1.694132
1.586426	1.694385
1.586914	1.693998
1.587402	1.694057
1.587891	1.694139
1.588379	1.694364
1.588867	1.694121
1.589355	1.694065
1.589844	1.694175
1.590332	1.694297
1.590820	1.694275
1.591309	1.694261
1.591797	1.694044
1.592285	1.694023
1.592773	1.694457
1.593262	1.694309
1.593750	1.694275
1.594238	1.694324
1.594727	1.694265
1.595215	1.694294
1.595703	1.694469
1.596191	1.694309
1.596680	1.694378
1.597168	1.694297
1.597656	1.694381
1.598145	1.694299
1.598633	1.694178
1.599121	1.694098
1.599609	1.694071
1.600098	1.694352
1.600586	1.694410
1.601074	1.694083
1.601562	1.694000
1.602051	1.694436
1.602539	1.694380
1.603027	1.694024
1.603516	1.694037
1.604004	1.693904
1.604492	1.694201
1.604980	1.694222
1.605469	1.694307
1.605957	1.694253
1.606445	1.694137
1.606934	1.694234
1.607422	1.694396
1.607910	1.694508
1.608398	1.694247
1.608887	1.694191
1.609375	1.694154
1.609863	1.694206
1.610352	1.694261
1.610840	1.694153
1.611328	1.694218
1.611816	1.694447
1.612305	1.694521
1.612793	1.694393
1.613281	1.694099
1.613770	1.694225
1.614258	1.694311
1.614746	1.694295
1.615234	1.694259
1.615723	1.694156
1.616211	1.694059
1.616699	1.693844
1.617187	1.694147
1.617676	1.694184
1.618164	1.694002
1.618652	1.693937
1.619141	1.694284
1.619629	1.694549
1.620117	1.694384
1.620605	1.694221
1.621094	1.694336
1.621582	1.694484
1.622070	1.694298
1.622559	1.694236
1.623047	1.694394
1.623535	1.694239
1.624023	1.694431
1.624512	1.694276
1.625000	1.694165
1.625488	1.694172
1.625977	1.694612
1.626465	1.694415
1.626953	1.694347
1.627441	1.694212
1.627930	1.694279
1.628418	1.694201
1.628906	1.694384
1.629395	1.694441
1.629883	1.694353
1.630371	1.694261
1.630859	1.694206
1.631348	1.694419
1.631836	1.694409
1.632324	1.694398
1.632812	1.694148
1.633301	1.694266
1.633789	1.694395
1.634277	1.694316
1.634766	1.694293
1.635254	1.694170
1.635742	1.694239
1.636230	1.694257
1.636719	1.694411
1.637207	1.694151
1.637695	1.694341
1.638184	1.694463
1.638672	1.694447
1.639160	1.694258
1.639648	1.694265
1.640137	1.694283
1.640625	1.694600
1.641113	1.694149
1.641602	1.694181
1.642090	1.694292
1.642578	1.694228
1.643066	1.694242
1.643555	1.694272
1.644043	1.694208
1.644531	1.693934
1.645020	1.694036
1.645508	1.694297
1.645996	1.694227
1.646484	1.694068
1.646973	1.693961
1.647461	1.694130
1.647949	1.694350
1.648437	1.694436
1.648926	1.694251
1.649414	1.693955
1.649902	1.694187
1.650391	1.694449
1.650879	1.694325
1.651367	1.694096
1.651855	1.693935
1.652344	1.694134
1.652832	1.694121
1.653320	1.694093
1.653809	1.693785
1.654297	1.693927
1.654785	1.694015
1.655273	1.694209
1.655762	1.693963
1.656250	1.693933
1.656738	1.693580
1.657227	1.694009
1.657715	1.694070
1.658203	1.693832
1.658691	1.693541
1.659180	1.693888
1.659668	1.694272
1.660156	1.694186
1.660645	1.694179
1.661133	1.693923
1.661621	1.694126
1.662109	1.694057
1.662598	1.694320
1.663086	1.693819
1.663574	1.693647
1.664062	1.694151
1.664551	1.694032
1.665039	1.693901
1.665527	1.694068
1.666016	1.693911
1.666504	1.693925
1.666992	1.693943
1.667480	1.694018
1.667969	1.693949
1.668457	1.693631
1.668945	1.693802
1.669434	1.693911
1.669922	1.693938
1.670410	1.693922
1.670898	1.693655
1.671387	1.693721
1.671875	1.693883
1.672363	1.693987
1.672852	1.693766
1.673340	1.693548
1.673828	1.693758
1.674316	1.693810
1.674805	1.693984
1.675293	1.693921
1.675781	1.693703
1.676270	1.693985
1.676758	1.693979
1.677246	1.694026
1.677734	1.693918
1.678223	1.693807
1.678711	1.694079
1.679199	1.694077
1.679687	1.693788
1.680176	1.693945
1.680664	1.693899
1.681152	1.693847
1.681641	1.694002
1.682129	1.693879
1.682617	1.693717
1.683105	1.694047
1.683594	1.694101
1.684082	1.694065
1.684570	1.694037
1.685059	1.693635
1.685547	1.693880
1.686035	1.694225
1.686523	1.694206
1.687012	1.694222
1.687500	1.693847
1.687988	1.693915
1.688477	1.694424
1.688965	1.694588
1.689453	1.693933
1.689941	1.694078
1.690430	1.694517
1.690918	1.694489
1.691406	1.694425
1.691895	1.694248
1.692383	1.694263
1.692871	1.694268
1.693359	1.694348
1.693848	1.694288
1.694336	1.693888
1.694824	1.694334
1.695312	1.694323
1.695801	1.694129
1.696289	1.694020
1.696777	1.694433
1.697266	1.694211
1.697754	1.694228
1.698242	1.694426
1.698730	1.694619
1.699219	1.694107
1.699707	1.693869
1.700195	1.694405
1.700684	1.694647
1.701172	1.694308
1.701660	1.694206
1.702148	1.694274
1.702637	1.694358
1.703125	1.694480
1.703613	1.694409
1.704102	1.694331
1.704590	1.694395
1.705078	1.694002
1.705566	1.694198
1.706055	1.694211
1.706543	1.694231
1.707031	1.694468
1.707520	1.694357
1.708008	1.694425
1.708496	1.694146
1.708984	1.693978
1.709473	1.694175
1.709961	1.694446
1.710449	1.694353
1.710937	1.694283
1.711426	1.694115
1.711914	1.694317
1.712402	1.694304
1.712891	1.694331
1.713379	1.694108
1.713867	1.694098
1.714355	1.693899
1.714844	1.694290
1.715332	1.694259
1.715820	1.694050
1.716309	1.693975
1.716797	1.694228
1.717285	1.694311
1.717773	1.694201
1.718262	1.694120
1.718750	1.694164
1.719238	1.694109
1.719727	1.694341
1.720215	1.694282
1.720703	1.694001
1.721191	1.694103
1.721680	1.694387
1.722168	1.694151
1.722656	1.693985
1.723145	1.693961
1.723633	1.694023
1.724121	1.694042
1.724609	1.694170
1.725098	1.694209
1.725586	1.694170
1.726074	1.694131
1.726562	1.694279
1.727051	1.694057
1.727539	1.694068
1.728027	1.693925
1.728516	1.694035
1.729004	1.694337
1.729492	1.694286
1.729980	1.694233
1.730469	1.694112
1.730957	1.694186
1.731445	1.694334
1.731934	1.694297
1.732422	1.694328
1.732910	1.694089
1.733398	1.694057
1.733887	1.694186
1.734375	1.694209
1.734863	1.694225
1.735352	1.694214
1.735840	1.694074
1.736328	1.694026
1.736816	1.694266
1.737305	1.694192
1.737793	1.693974
1.738281	1.694070
1.738770	1.694035
1.739258	1.694237
1.739746	1.694269
1.740234	1.694214
1.740723	1.694203
1.741211	1.694185
1.741699	1.694146
1.742187	1.694143
1.742676	1.694068
1.743164	1.694134
1.743652	1.694047
1.744141	1.694255
1.744629	1.694220
1.745117	1.694047
1.745605	1.694339
1.746094	1.694331
1.746582	1.694360
1.747070	1.693932
1.747559	1.693912
1.748047	1.693919
1.748535	1.694156
1.749023	1.694370
1.749512	1.694074
1.750000	1.694109
1.750488	1.694189
1.750977	1.694053
1.751465	1.694223
1.751953	1.694067
1.752441	1.693960
1.752930	1.694143
1.753418	1.694107
1.753906	1.694213
1.754395	1.694002
1.754883	1.694056
1.755371	1.694358
1.755859	1.694329
1.756348	1.694092
1.756836	1.693970
1.757324	1.694188
1.757812	1.694237
1.758301	1.694193
1.758789	1.694056
1.759277	1.694079
1.759766	1.694269
1.760254	1.694498
1.760742	1.694368
1.761230	1.694115
1.761719	1.693943
1.762207	1.694215
1.762695	1.694313
1.763184	1.694267
1.763672	1.694140
1.764160	1.694146
1.764648	1.694175
1.765137	1.694278
1.765625	1.694383
1.766113	1.693981
1.766602	1.694051
1.767090	1.694229
1.767578	1.694330
1.768066	1.694388
1.768555	1.694237
1.769043	1.694001
1.769531	1.694083
1.770020	1.694404
1.770508	1.694227
1.770996	1.693909
1.771484	1.694178
1.771973	1.694131
1.772461	1.694381
1.772949	1.694615
1.773437	1.694238
1.773926	1.694121
1.774414	1.694236
1.774902	1.694182
1.775391	1.694207
1.775879	1.694059
1.776367	1.693866
1.776855	1.693948
1.777344	1.694336
1.777832	1.694112
1.778320	1.694014
1.778809	1.694027
1.779297	1.694318
1.779785	1.694159
1.780273	1.693813
1.780762	1.694088
1.781250	1.694276
1.781738	1.694070
1.782227	1.694046
1.782715	1.693941
1.783203	1.694030
1.783691	1.694411
1.784180	1.694380
1.784668	1.694275
1.785156	1.694104
1.785645	1.693750
1.786133	1.694184
1.786621	1.694370
1.787109	1.694006
1.787598	1.693997
1.788086	1.693688
1.788574	1.693864
1.789062	1.694408
1.789551	1.694140
1.790039	1.693637
1.790527	1.693887
1.791016	1.694085
1.791504	1.694130
1.791992	1.694081
1.792480	1.693828
1.792969	1.693783
1.793457	1.693865
1.793945	1.694083
1.794434	1.694041
1.794922	1.693668
1.795410	1.693880
1.795898	1.693991
1.796387	1.694097
1.796875	1.694020
1.797363	1.693896
1.797852	1.693707
1.798340	1.694000
1.798828	1.694013
1.799316	1.693809
1.799805	1.693779
1.800293	1.693844
1.800781	1.693867
1.801270	1.694022
1.801758	1.693646
1.802246	1.693678
1.802734	1.693334
1.803223	1.693766
1.803711	1.693896
1.804199	1.693813
1.804687	1.693546
1.805176	1.693775
1.805664	1.693621
1.806152	1.693990
1.806641	1.693902
1.807129	1.693625
1.807617	1.693645
1.808105	1.694059
1.808594	1.694046
1.809082	1.693624
1.809570	1.693826
1.810059	1.693958
1.810547	1.694023
1.811035	1.693758
1.811523	1.693990
1.812012	1.693741
1.812500	1.694127
1.812988	1.694262
1.813477	1.693999
1.813965	1.694105
1.814453	1.694046
1.814941	1.694078
1.815430	1.694015
1.815918	1.694065
1.816406	1.694234
1.816895	1.694007
1.817383	1.694177
1.817871	1.694234
1.818359	1.693973
1.818848	1.694009
1.819336	1.694295
1.819824	1.694048
1.820312	1.694084
1.820801	1.694247
1.821289	1.694109
1.821777	1.694201
1.822266	1.694276
1.822754	1.694153
1.823242	1.694087
1.823730	1.694024
1.824219	1.694113
1.824707	1.693841
1.825195	1.694118
1.825684	1.694277
1.826172	1.693849
1.826660	1.693763
1.827148	1.693904
1.827637	1.693890
1.828125	1.694086
1.828613	1.693940
1.829102	1.693817
1.829590	1.693986
1.830078	1.694167
1.830566	1.694004
1.831055	1.693998
1.831543	1.693924
1.832031	1.694137
1.832520	1.693802
1.833008	1.693690
1.833496	1.693722
1.833984	1.693960
1.834473	1.693871
1.834961	1.693835
1.835449	1.693786
1.835937	1.693784
1.836426	1.693921
1.836914	1.694017
1.837402	1.693719
1.837891	1.693765
1.838379	1.693884
1.838867	1.693896
1.839355	1.693925
1.839844	1.693774
1.840332	1.694049
1.840820	1.693736
1.841309	1.693735
1.841797	1.693860
1.842285	1.693565
1.842773	1.693921
1.843262	1.693910
1.843750	1.693398
1.844238	1.693847
1.844727	1.693844
1.845215	1.693810
1.845703	1.693786
1.846191	1.693786
1.846680	1.693847
1.847168	1.693568
1.847656	1.693552
1.848145	1.693733
1.848633	1.693945
1.849121	1.693789
1.849609	1.693796
1.850098	1.693729
1.850586	1.693967
1.851074	1.694213
1.851562	1.693946
1.852051	1.693908
1.852539	1.693815
1.853027	1.693972
1.853516	1.693707
1.854004	1.693731
1.854492	1.693798
1.854980	1.693813
1.855469	1.693605
1.855957	1.693722
1.856445	1.693750
1.856934	1.693601
1.857422	1.693890
1.857910	1.693867
1.858398	1.693907
1.858887	1.693826
1.859375	1.693712
1.859863	1.693782
1.860352	1.694015
1.860840	1.693916
1.861328	1.694012
1.861816	1.693621
1.862305	1.693799
1.862793	1.694098
1.863281	1.694028
1.863770	1.693705
1.864258	1.693900
1.864746	1.694000
1.865234	1.694201
1.865723	1.694252
1.866211	1.694097
1.866699	1.693992
1.867187	1.694045
1.867676	1.694142
1.868164	1.694120
1.868652	1.693885
1.869141	1.694030
1.869629	1.693931
1.870117	1.694159
1.870605	1.694041
1.871094	1.693802
1.871582	1.693959
1.872070	1.694010
1.872559	1.694062
1.873047	1.694078
1.873535	1.693916
1.874023	1.693934
1.874512	1.694316
1.875000	1.694345
1.875488	1.694297
1.875977	1.694267
1.876465	1.694133
1.876953	1.694192
1.877441	1.694388
1.877930	1.694323
1.878418	1.694379
1.878906	1.694231
1.879395	1.694517
1.879883	1.694511
1.880371	1.694438
1.880859	1.694279
1.881348	1.694300
1.881836	1.694289
1.882324	1.694242
1.882812	1.694469
1.883301	1.694172
1.883789	1.694218
1.884277	1.694440
1.884766	1.694335
1.885254	1.694436
1.885742	1.694254
1.886230	1.694189
1.886719	1.694331
1.887207	1.694559
1.887695	1.694479
1.888184	1.694406
1.888672	1.694431
1.889160	1.694679
1.889648	1.694700
1.890137	1.694627
1.890625	1.694583
1.891113	1.694702
1.891602	1.694736
1.892090	1.694671
1.892578	1.694588
1.893066	1.694371
1.893555	1.694562
1.894043	1.694539
1.894531	1.694530
1.895020	1.694416
1.895508	1.694369
1.895996	1.694263
1.896484	1.694817
1.896973	1.694532
1.897461	1.694578
1.897949	1.694433
1.898437	1.694632
1.898926	1.694580
1.899414	1.694516
1.899902	1.694496
1.900391	1.694564
1.900879	1.694504
1.901367	1.694599
1.901855	1.694610
1.902344	1.694347
1.902832	1.694239
1.903320	1.694487
1.903809	1.694685
1.904297	1.694635
1.904785	1.694515
1.905273	1.694519
1.905762	1.694606
1.906250	1.694735
1.906738	1.694690
1.907227	1.694467
1.907715	1.694547
1.908203	1.694515
1.908691	1.694656
1.909180	1.694475
1.909668	1.694260
1.910156	1.694339
1.910645	1.694348
1.911133	1.694557
1.911621	1.694607
1.912109	1.694402
1.912598	1.694497
1.913086	1.694417
1.913574	1.694377
1.914062	1.694381
1.914551	1.694245
1.915039	1.694370
1.915527	1.694417
1.916016	1.694531
1.916504	1.694284
1.916992	1.693845
1.917480	1.694394
1.917969	1.694409
1.918457	1.694250
1.918945	1.693868
1.919434	1.694119
1.919922	1.694102
1.920410	1.694602
1.920898	1.694290
1.921387	1.693881
1.921875	1.694129
1.922363	1.694360
1.922852	1.694353
1.923340	1.694007
1.923828	1.693910
1.924316	1.693713
1.924805	1.694102
1.925293	1.694022
1.925781	1.694116
1.926270	1.693782
1.926758	1.694077
1.927246	1.694166
1.927734	1.694301
1.928223	1.693976
1.928711	1.694117
1.929199	1.693943
1.929687	1.694173
1.930176	1.694190
1.930664	1.694104
1.931152	1.693838
1.931641	1.693959
1.932129	1.694130
1.932617	1.694029
1.933105	1.693858
1.933594	1.693865
1.934082	1.693741
1.934570	1.693990
1.935059	1.694170
1.935547	1.693857
1.936035	1.694049
1.936523	1.693818
1.937012	1.694075
1.937500	1.693906
1.937988	1.694008
1.938477	1.693577
1.938965	1.693849
1.939453	1.693775
1.939941	1.693927
1.940430	1.693533
1.940918	1.693607
1.941406	1.693936
1.941895	1.693819
1.942383	1.693919
1.942871	1.693628
1.943359	1.693566
1.943848	1.693817
1.944336	1.693941
1.944824	1.694065
1.945312	1.693913
1.945801	1.693632
1.946289	1.693875
1.946777	1.693706
1.947266	1.693937
1.947754	1.693887
1.948242	1.693745
1.948730	1.693796
1.949219	1.693932
1.949707	1.693735
1.950195	1.693905
1.950684	1.693796
1.951172	1.694020
1.951660	1.694085
1.952148	1.693968
1.952637	1.693849
1.953125	1.693827
1.953613	1.694004
1.954102	1.694032
1.954590	1.693796
1.955078	1.693750
1.955566	1.693782
1.956055	1.693845
1.956543	1.694072
1.957031	1.693802
1.957520	1.694027
1.958008	1.694056
1.958496	1.694233
1.958984	1.694007
1.959473	1.694142
1.959961	1.694096
1.960449	1.694118
1.960937	1.694211
1.961426	1.694109
1.961914	1.693957
1.962402	1.693671
1.962891	1.694026
1.963379	1.693893
1.963867	1.693752
1.964355	1.693696
1.964844	1.693815
1.965332	1.693778
1.965820	1.694397
1.966309	1.694038
1.966797	1.694186
1.967285	1.694094
1.967773	1.694215
1.968262	1.694112
1.968750	1.694026
1.969238	1.693961
1.969727	1.694125
1.970215	1.694116
1.970703	1.694236
1.971191	1.694144
1.971680	1.694181
1.972168	1.693951
1.972656	1.693971
1.973145	1.693976
1.973633	1.693962
1.974121	1.694148
1.974609	1.694053
1.975098	1.694004
1.975586	1.693968
1.976074	1.694049
1.976562	1.693917
1.977051	1.693852
1.977539	1.694113
1.978027	1.694265
1.978516	1.694087
1.979004	1.693799
1.979492	1.693874
1.979980	1.694065
1.980469	1.694004
1.980957	1.693934
1.981445	1.693891
1.981934	1.693929
1.982422	1.694197
1.982910	1.694098
1.983398	1.693939
1.983887	1.693965
1.984375	1.694053
1.984863	1.694194
1.985352	1.694451
1.985840	1.694113
1.986328	1.694096
1.986816	1.694089
1.987305	1.694032
1.987793	1.694054
1.988281	1.694077
1.988770	1.693832
1.989258	1.693777
1.989746	1.694189
1.990234	1.693958
1.990723	1.693814
1.991211	1.693752
1.991699	1.693898
1.992187	1.694150
1.992676	1.694241
1.993164	1.694007
1.993652	1.693854
1.994141	1.693998
1.994629	1.694143
1.995117	1.694158
1.995605	1.694172
1.996094	1.693811
1.996582	1.694038
1.997070	1.694262
1.997559	1.694124
1.998047	1.694300
1.998535	1.694114
1.999023	1.694218
1.999512	1.694157
2.000000	1.694240
2.000488	1.694292
2.000977	1.694336
2.001465	1.694301
2.001953	1.693984
2.002441	1.694296
2.002930	1.694065
2.003418	1.694117
2.003906	1.694220
2.004395	1.694095
2.004883	1.693980
2.005371	1.694049
2.005859	1.694058
2.006348	1.694053
2.006836	1.694101
2.007324	1.694091
2.007812	1.693963
2.008301	1.693909
2.008789	1.694139
2.009277	1.694092
2.009766	1.694001
2.010254	1.693960
2.010742	1.694148
2.011230	1.694374
2.011719	1.694154
2.012207	1.694102
2.012695	1.693736
2.013184	1.693977
2.013672	1.694074
2.014160	1.694220
2.014648	1.693919
2.015137	1.694008
2.015625	1.694109
2.016113	1.694093
2.016602	1.694006
2.017090	1.693755
2.017578	1.693823
2.018066	1.693976
2.018555	1.694086
2.019043	1.693905
2.019531	1.693749
2.020020	1.693774
2.020508	1.693801
2.020996	1.693976
2.021484	1.693863
2.021973	1.693630
2.022461	1.693815
2.022949	1.694067
2.023437	1.693956
2.023926	1.693890
2.024414	1.693760
2.024902	1.694001
2.025391	1.694248
2.025879	1.694377
2.026367	1.694062
2.026855	1.694051
2.027344	1.693807
2.027832	1.694048
2.028320	1.694056
2.028809	1.694031
2.029297	1.693672
2.029785	1.693907
2.030273	1.694070
2.030762	1.693965
2.031250	1.693734
2.031738	1.693556
2.032227	1.693534
2.032715	1.694117
2.033203	1.694165
2.033691	1.693625
2.034180	1.693641
2.034668	1.693649
2.035156	1.694015
2.035645	1.693940
2.036133	1.693802
2.036621	1.693603
2.037109	1.693875
2.037598	1.694070
2.038086	1.693934
2.038574	1.693840
2.039062	1.693894
2.039551	1.694046
2.040039	1.694299
2.040527	1.694239
2.041016	1.694011
2.041504	1.693953
2.041992	1.694134
2.042480	1.694185
2.042969	1.694225
2.043457	1.693821
2.043945	1.693803
2.044434	1.694109
2.044922	1.694177
2.045410	1.694115
2.045898	1.693818
2.046387	1.693990
2.046875	1.693963
2.047363	1.694050
2.047852	1.693987
2.048340	1.693713
2.048828	1.693827
2.049316	1.694265
2.049805	1.694201
2.050293	1.694138
2.050781	1.693929
2.051270	1.694020
2.051758	1.694287
2.052246	1.694543
2.052734	1.694212
2.053223	1.694029
2.053711	1.694117
2.054199	1.694370
2.054687	1.694237
2.055176	1.694175
2.055664	1.693965
2.056152	1.693991
2.056641	1.694157
2.057129	1.694125
2.057617	1.693938
2.058105	1.693919
2.058594	1.694020
2.059082	1.694347
2.059570	1.694111
2.060059	1.694245
2.060547	1.694037
2.061035	1.694342
2.061523	1.694457
2.062012	1.694218
2.062500	1.694042
2.062988	1.694269
2.063477	1.694345
2.063965	1.694417
2.064453	1.694385
2.064941	1.694107
2.065430	1.694203
2.065918	1.694198
2.066406	1.694478
2.066895	1.694106
2.067383	1.694206
2.067871	1.694087
2.068359	1.694267
2.068848	1.694263
2.069336	1.694245
2.069824	1.693957
2.070312	1.694365
2.070801	1.694287
2.071289	1.694237
2.071777	1.694303
2.072266	1.694340
2.072754	1.694327
2.073242	1.694564
2.073730	1.694381
2.074219	1.694254
2.074707	1.694131
2.075195	1.694209
2.075684	1.694383
2.076172	1.694358
2.076660	1.694372
2.077148	1.694422
2.077637	1.694516
2.078125	1.694627
2.078613	1.694672
2.079102	1.694518
2.079590	1.694731
2.080078	1.694760
2.080566	1.694863
2.081055	1.694668
2.081543	1.694663
2.082031	1.694537
2.082520	1.694792
2.083008	1.694573
2.083496	1.694559
2.083984	1.694564
2.084473	1.694607
2.084961	1.694668
2.085449	1.694760
2.085937	1.694588
2.086426	1.694577
2.086914	1.694733
2.087402	1.694659
2.087891	1.694575
2.088379	1.694569
2.088867	1.694573
2.089355	1.694470
2.089844	1.694708
2.090332	1.695012
2.090820	1.694586
2.091309	1.694839
2.091797	1.694817
2.092285	1.694901
2.092773	1.694948
2.093262	1.694785
2.093750	1.694709
2.094238	1.694830
2.094727	1.694965
2.095215	1.694869
2.095703	1.694461
2.096191	1.694634
2.096680	1.694743
2.097168	1.694771
2.097656	1.694538
2.098145	1.694405
2.098633	1.694500
2.099121	1.694610
2.099609	1.694625
2.100098	1.694574
2.100586	1.694464
2.101074	1.694543
2.101562	1.694582
2.102051	1.694798
2.102539	1.694596
2.103027	1.694618
2.103516	1.694486
2.104004	1.694430
2.104492	1.694646
2.104980	1.694873
2.105469	1.694519
2.105957	1.694587
2.106445	1.694533
2.106934	1.694699
2.107422	1.694625
2.107910	1.694547
2.108398	1.694394
2.108887	1.694561
2.109375	1.694687
2.109863	1.694507
2.110352	1.694514
2.110840	1.694309
2.111328	1.694474
2.111816	1.694447
2.112305	1.694402
2.112793	1.694126
2.113281	1.694124
2.113770	1.694352
2.114258	1.694389
2.114746	1.694145
2.115234	1.694075
2.115723	1.694040
2.116211	1.694433
2.116699	1.694062
2.117187	1.693910
2.117676	1.693993
2.118164	1.694214
2.118652	1.694265
2.119141	1.694278
2.119629	1.694263
2.120117	1.694254
2.120605	1.694580
2.121094	1.694174
2.121582	1.694226
2.122070	1.694324
2.122559	1.694181
2.123047	1.694254
2.123535	1.694219
2.124023	1.694068
2.124512	1.694046
2.125000	1.693873
2.125488	1.694089
2.125977	1.694297
2.126465	1.694110
2.126953	1.694078
2.127441	1.693775
2.127930	1.693689
2.128418	1.694186
2.128906	1.694076
2.129395	1.693790
2.129883	1.693758
2.130371	1.694010
2.130859	1.693961
2.131348	1.694381
2.131836	1.694012
2.132324	1.693777
2.132812	1.694265
2.133301	1.694282
2.133789	1.694104
2.134277	1.694139
2.134766	1.694042
2.135254	1.694085
2.135742	1.694225
2.136230	1.693931
2.136719	1.693993
2.137207	1.693763
2.137695	1.694097
2.138184	1.694054
2.138672	1.693949
2.139160	1.693739
2.139648	1.693941
2.140137	1.694013
2.140625	1.694312
2.141113	1.693819
2.141602	1.693614
2.142090	1.694043
2.142578	1.694250
2.143066	1.694153
2.143555	1.693885
2.144043	1.693776
2.144531	1.694044
2.145020	1.694223
2.145508	1.694129
2.145996	1.693755
2.146484	1.694040
2.146973	1.694360
2.147461	1.694201
2.147949	1.693941
2.148437	1.693970
2.148926	1.693984
2.149414	1.694313
2.149902	1.694421
2.150391	1.694261
2.150879	1.693985
2.151367	1.694078
2.151855	1.694350
2.152344	1.694355
2.152832	1.694196
2.153320	1.693981
2.153809	1.694081
2.154297	1.694255
2.154785	1.694516
2.155273	1.694389
2.155762	1.694056
2.156250	1.694233
2.156738	1.694318
2.157227	1.694377
2.157715	1.694275
2.158203	1.694281
2.158691	1.694124
2.159180	1.694272
2.159668	1.694463
2.160156	1.694509
2.160645	1.694584
2.161133	1.694486
2.161621	1.694622
2.162109	1.694448
2.162598	1.694483
2.163086	1.694456
2.163574	1.694524
2.164062	1.694481
2.164551	1.694538
2.165039	1.694263
2.165527	1.694478
2.166016	1.694546
2.166504	1.694588
2.166992	1.694370
2.167480	1.694609
2.167969	1.694406
2.168457	1.694651
2.168945	1.694640
2.169434	1.694752
2.169922	1.694541
2.170410	1.694666
2.170898	1.694711
2.171387	1.694655
2.171875	1.694714
2.172363	1.694730
2.172852	1.694732
2.173340	1.694620
2.173828	1.694837
2.174316	1.694801
2.174805	1.694707
2.175293	1.694745
2.175781	1.694748
2.176270	1.694793
2.176758	1.694608
2.177246	1.694519
2.177734	1.694676
2.178223	1.694740
2.178711	1.694723
2.179199	1.694672
2.179687	1.694279
2.180176	1.694776
2.180664	1.694860
2.181152	1.694735
2.181641	1.694864
2.182129	1.694627
2.182617	1.694746
2.183105	1.694711
2.183594	1.694687
2.184082	1.694763
2.184570	1.694655
2.185059	1.694683
2.185547	1.694749
2.186035	1.694553
2.186523	1.694835
2.187012	1.694589
2.187500	1.694726
2.187988	1.694698
2.188477	1.694818
2.188965	1.694739
2.189453	1.694538
2.189941	1.694829
2.190430	1.694785
2.190918	1.694690
2.191406	1.694560
2.191895	1.694667
2.192383	1.694494
2.192871	1.694739
2.193359	1.694500
2.193848	1.694378
2.194336	1.694084
2.194824	1.694762
2.195312	1.694571
2.195801	1.694477
2.196289	1.694530
2.196777	1.694483
2.197266	1.694626
2.197754	1.694791
2.198242	1.694701
2.198730	1.694559
2.199219	1.694768
2.199707	1.694828
2.200195	1.694834
2.200684	1.694517
2.201172	1.694646
2.201660	1.694618
2.202148	1.694497
2.202637	1.694457
2.203125	1.694604
2.203613	1.694322
2.204102	1.694671
2.204590	1.694550
2.205078	1.694660
2.205566	1.694456
2.206055	1.694286
2.206543	1.694564
2.207031	1.694334
2.207520	1.694427
2.208008	1.694383
2.208496	1.694171
2.208984	1.694045
2.209473	1.694536
2.209961	1.694466
2.210449	1.694061
2.210937	1.694032
2.211426	1.694488
2.211914	1.694391
2.212402	1.693951
2.212891	1.694146
2.213379	1.694340
2.213867	1.694154
2.214355	1.693999
2.214844	1.694164
2.215332	1.693902
2.215820	1.694243
2.216309	1.694527
2.216797	1.694250
2.217285	1.694037
2.217773	1.694125
2.218262	1.694296
2.218750	1.694170
2.219238	1.694252
2.219727	1.694108
2.220215	1.694193
2.220703	1.694368
2.221191	1.694104
2.221680	1.693909
2.222168	1.693838
2.222656	1.693749
2.223145	1.694081
2.223633	1.694027
2.224121	1.694085
2.224609	1.693934
2.225098	1.693810
2.225586	1.693984
2.226074	1.694297
2.226562	1.694106
2.227051	1.693631
2.227539	1.693910
2.228027	1.694172
2.228516	1.694032
2.229004	1.693854
2.229492	1.693725
2.229980	1.693760
2.230469	1.694248
2.230957	1.694255
2.231445	1.693691
2.231934	1.693757
2.232422	1.693835
2.232910	1.694021
2.233398	1.694062
2.233887	1.693958
2.234375	1.693903
2.234863	1.693661
2.235352	1.693914
2.235840	1.694020
2.236328	1.693661
2.236816	1.693505
2.237305	1.693766
2.237793	1.693731
2.238281	1.693738
2.238770	1.693883
2.239258	1.693622
2.239746	1.693768
2.240234	1.694023
2.240723	1.693998
2.241211	1.693627
2.241699	1.693625
2.242187	1.693813
2.242676	1.694006
2.243164	1.693923
2.243652	1.693804
2.244141	1.693564
2.244629	1.693686
2.245117	1.693828
2.245605	1.693919
2.246094	1.693535
2.246582	1.693753
2.247070	1.693830
2.247559	1.693956
2.248047	1.694026
2.248535	1.693729
2.249023	1.693581
2.249512	1.694046
2.250000	1.694065
2.250488	1.694186
2.250977	1.693743
2.251465	1.694122
2.251953	1.694136
2.252441	1.694269
2.252930	1.694109
2.253418	1.694062
2.253906	1.694127
2.254395	1.694738
2.254883	1.694273
2.255371	1.694073
2.255859	1.694197
2.256348	1.694348
2.256836	1.694270
2.257324	1.694301
2.257812	1.694047
2.258301	1.694145
2.258789	1.694070
2.259277	1.694258
2.259766	1.694463
2.260254	1.694383
2.260742	1.694528
2.261230	1.694380
2.261719	1.694540
2.262207	1.694521
2.262695	1.694453
2.263184	1.694430
2.263672	1.694480
2.264160	1.694439
2.264648	1.694606
2.265137	1.694295
2.265625	1.694459
2.266113	1.694430
2.266602	1.694629
2.267090	1.694627
2.267578	1.694581
2.268066	1.694632
2.268555	1.694640
2.269043	1.694849
2.269531	1.694744
2.270020	1.694629
2.270508	1.694557
2.270996	1.694536
2.271484	1.694751
2.271973	1.694704
2.272461	1.694749
2.272949	1.694583
2.273437	1.694461
2.273926	1.694817
2.274414	1.694713
2.274902	1.694580
2.275391	1.694824
2.275879	1.694773
2.276367	1.694739
2.276855	1.694561
2.277344	1.694597
2.277832	1.694428
2.278320	1.694648
2.278809	1.694633
2.279297	1.694585
2.279785	1.694428
2.280273	1.694794
2.280762	1.694527
2.281250	1.694755
2.281738	1.694503
2.282227	1.694726
2.282715	1.694827
2.283203	1.694937
2.283691	1.694934
2.284180	1.694677
2.284668	1.694643
2.285156	1.694640
2.285645	1.694863
2.286133	1.694522
2.286621	1.694512
2.287109	1.694557
2.287598	1.694458
2.288086	1.694522
2.288574	1.694579
2.289062	1.694422
2.289551	1.694374
2.290039	1.694546
2.290527	1.694602
2.291016	1.694383
2.291504	1.694371
2.291992	1.694312
2.292480	1.694440
2.292969	1.694519
2.293457	1.694289
2.293945	1.694237
2.294434	1.694125
2.294922	1.694471
2.295410	1.694288
2.295898	1.694433
2.296387	1.694247
2.296875	1.694295
2.297363	1.694283
2.297852	1.694668
2.298340	1.694297
2.298828	1.694441
2.299316	1.694297
2.299805	1.694405
2.300293	1.694361
2.300781	1.694247
2.301270	1.694143
2.301758	1.694293
2.302246	1.694231
2.302734	1.694328
2.303223	1.693927
2.303711	1.693814
2.304199	1.694244
2.304687	1.694303
2.305176	1.694015
2.305664	1.694003
2.306152	1.693989
2.306641	1.694085
2.307129	1.694283
2.307617	1.694111
2.308105	1.693930
2.308594	1.694056
2.309082	1.694021
2.309570	1.694263
2.310059	1.693997
2.310547	1.694141
2.311035	1.694053
2.311523	1.694048
2.312012	1.694023
2.312500	1.693985
2.312988	1.693846
2.313477	1.693907
2.313965	1.693867
2.314453	1.694001
2.314941	1.693981
2.315430	1.693663
2.315918	1.693849
2.316406	1.694269
2.316895	1.694042
2.317383	1.693923
2.317871	1.694109
2.318359	1.693928
2.318848	1.694154
2.319336	1.694246
2.319824	1.694234
2.320312	1.694069
2.320801	1.694106
2.321289	1.694276
2.321777	1.693916
2.322266	1.694136
2.322754	1.694191
2.323242	1.694011
2.323730	1.693869
2.324219	1.694386
2.324707	1.694126
2.325195	1.694057
2.325684	1.693974
2.326172	1.694115
2.326660	1.694284
2.327148	1.693999
2.327637	1.693929
2.328125	1.694031
2.328613	1.694208
2.329102	1.694390
2.329590	1.694266
2.330078	1.694370
2.330566	1.694339
2.331055	1.694184
2.331543	1.694490
2.332031	1.694311
2.332520	1.694214
2.333008	1.694241
2.333496	1.694290
2.333984	1.694410
2.334473	1.694370
2.334961	1.694302
2.335449	1.694254
2.335937	1.694427
2.336426	1.694630
2.336914	1.694419
2.337402	1.694333
2.337891	1.694440
2.338379	1.694630
2.338867	1.694569
2.339355	1.694554
2.339844	1.694037
2.340332	1.694355
2.340820	1.694566
2.341309	1.694387
2.341797	1.694388
2.342285	1.694403
2.342773	1.694590
2.343262	1.694582
2.343750	1.694545
2.344238	1.694377
2.344727	1.694492
2.345215	1.694779
2.345703	1.694987
2.346191	1.694695
2.346680	1.694573
2.347168	1.694574
2.347656	1.694703
2.348145	1.694724
2.348633	1.694639
2.349121	1.694584
2.349609	1.694710
2.350098	1.694850
2.350586	1.694743
2.351074	1.694701
2.351562	1.694572
2.352051	1.694590
2.352539	1.694826
2.353027	1.694810
2.353516	1.694452
2.354004	1.694539
2.354492	1.694499
2.354980	1.694569
2.355469	1.694808
2.355957	1.694352
2.356445	1.694286
2.356934	1.694550
2.357422	1.694903
2.357910	1.694852
2.358398	1.694624
2.358887	1.694649
2.359375	1.694744
2.359863	1.695114
2.360352	1.694920
2.360840	1.694664
2.361328	1.694662
2.361816	1.695109
2.362305	1.694990
2.362793	1.694831
2.363281	1.694670
2.363770	1.694644
2.364258	1.694856
2.364746	1.695194
2.365234	1.694712
2.365723	1.694455
2.366211	1.694720
2.366699	1.694896
2.367187	1.694737
2.367676	1.694590
2.368164	1.694496
2.368652	1.694675
2.369141	1.694665
2.369629	1.694795
2.370117	1.694555
2.370605	1.694446
2.371094	1.694427
2.371582	1.694782
2.372070	1.694635
2.372559	1.694768
2.373047	1.694596
2.373535	1.694676
2.374023	1.694956
2.374512	1.694779
2.375000	1.694560
2.375488	1.694482
2.375977	1.694629
2.376465	1.694798
2.376953	1.694677
2.377441	1.694439
2.377930	1.694352
2.378418	1.694497
2.378906	1.694568
2.379395	1.694359
2.379883	1.694352
2.380371	1.694310
2.380859	1.694394
2.381348	1.694331
2.381836	1.694566
2.382324	1.694165
2.382812	1.694492
2.383301	1.694229
2.383789	1.694316
2.384277	1.694086
2.384766	1.694126
2.385254	1.694178
2.385742	1.694414
2.386230	1.694286
2.386719	1.694261
2.387207	1.694152
2.387695	1.694159
2.388184	1.694364
2.388672	1.694297
2.389160	1.694413
2.389648	1.694181
2.390137	1.694242
2.390625	1.694465
2.391113	1.694330
2.391602	1.694289
2.392090	1.694390
2.392578	1.694254
2.393066	1.694334
2.393555	1.694314
2.394043	1.694280
2.394531	1.694100
2.395020	1.694215
2.395508	1.694220
2.395996	1.694152
2.396484	1.693937
2.396973	1.694028
2.397461	1.693837
2.397949	1.694149
2.398437	1.694026
2.398926	1.694067
2.399414	1.693919
2.399902	1.694210
2.400391	1.694312
2.400879	1.694120
2.401367	1.694054
2.401855	1.694175
2.402344	1.694202
2.402832	1.693984
2.403320	1.694039
2.403809	1.694015
2.404297	1.693907
2.404785	1.694051
2.405273	1.693990
2.405762	1.693830
2.406250	1.693921
2.406738	1.694117
2.407227	1.693692
2.407715	1.694037
2.408203	1.693938
2.408691	1.693866
2.409180	1.693801
2.409668	1.694024
2.410156	1.694112
2.410645	1.693991
2.411133	1.693815
2.411621	1.693973
2.412109	1.694352
2.412598	1.694049
2.413086	1.693871
2.413574	1.693809
2.414062	1.693861
2.414551	1.693885
2.415039	1.694002
2.415527	1.693935
2.416016	1.693987
2.416504	1.694251
2.416992	1.694350
2.417480	1.694115
2.417969	1.694092
2.418457	1.694168
2.418945	1.694245
2.419434	1.694274
2.419922	1.694150
2.420410	1.694107
2.420898	1.694065
2.421387	1.694206
2.421875	1.694106
2.422363	1.693987
2.422852	1.694079
2.423340	1.694051
2.423828	1.694183
2.424316	1.694233
2.424805	1.693921
2.425293	1.694012
2.425781	1.694299
2.426270	1.694198
2.426758	1.694462
2.427246	1.694347
2.427734	1.694190
2.428223	1.694363
2.428711	1.694518
2.429199	1.694660
2.429687	1.694496
2.430176	1.694303
2.430664	1.694354
2.431152	1.694507
2.431641	1.694507
2.432129	1.694323
2.432617	1.694216
2.433105	1.694363
2.433594	1.694314
2.434082	1.694411
2.434570	1.694269
2.435059	1.694140
2.435547	1.694563
2.436035	1.694900
2.436523	1.694740
2.437012	1.694649
2.437500	1.694071
2.437988	1.694256
2.438477	1.694437
2.438965	1.694496
2.439453	1.694627
2.439941	1.694636
2.440430	1.694890
2.440918	1.694878
2.441406	1.694768
2.441895	1.694761
2.442383	1.694864
2.442871	1.694516
2.443359	1.694496
2.443848	1.694832
2.444336	1.694630
2.444824	1.694596
2.445312	1.694728
2.445801	1.694643
2.446289	1.694688
2.446777	1.694687
2.447266	1.694716
2.447754	1.694853
2.448242	1.694739
2.448730	1.694317
2.449219	1.694557
2.449707	1.694646
2.450195	1.694740
2.450684	1.694568
2.451172	1.694669
2.451660	1.694370
2.452148	1.694796
2.452637	1.694875
2.453125	1.694590
2.453613	1.694558
2.454102	1.694569
2.454590	1.694744
2.455078	1.694889
2.455566	1.694791
2.456055	1.694740
2.456543	1.694641
2.457031	1.694594
2.457520	1.694846
2.458008	1.694712
2.458496	1.694491
2.458984	1.694409
2.459473	1.694676
2.459961	1.694754
2.460449	1.694669
2.460937	1.694397
2.461426	1.694327
2.461914	1.694463
2.462402	1.694453
2.462891	1.694431
2.463379	1.694408
2.463867	1.694192
2.464355	1.694405
2.464844	1.694348
2.465332	1.693974
2.465820	1.694054
2.466309	1.693892
2.466797	1.694400
2.467285	1.694413
2.467773	1.694067
2.468262	1.694101
2.468750	1.693880
2.469238	1.694157
2.469727	1.694202
2.470215	1.693981
2.470703	1.693957
2.471191	1.693890
2.471680	1.694063
2.472168	1.693902
2.472656	1.693767
2.473145	1.693809
2.473633	1.693807
2.474121	1.693730
2.474609	1.693708
2.475098	1.693891
2.475586	1.693502
2.476074	1.693799
2.476562	1.693810
2.477051	1.693745
2.477539	1.693468
2.478027	1.693359
2.478516	1.693446
2.479004	1.693606
2.479492	1.693716
2.479980	1.693568
2.480469	1.693471
2.480957	1.693520
2.481445	1.693917
2.481934	1.693809
2.482422	1.693188
2.482910	1.693495
2.483398	1.693471
2.483887	1.693690
2.484375	1.693639
2.484863	1.693326
2.485352	1.693406
2.485840	1.693517
2.486328	1.693559
2.486816	1.693602
2.487305	1.693328
2.487793	1.693423
2.488281	1.693561
2.488770	1.693426
2.489258	1.693511
2.489746	1.693447
2.490234	1.693400
2.490723	1.693869
2.491211	1.693686
2.491699	1.693620
2.492187	1.693311
2.492676	1.693489
2.493164	1.693821
2.493652	1.693729
2.494141	1.693487
2.494629	1.693478
2.495117	1.693782
2.495605	1.693754
2.496094	1.693909
2.496582	1.693730
2.497070	1.693501
2.497559	1.693710
2.498047	1.693844
2.498535	1.693878
2.499023	1.693782
2.499512	1.693758
2.500000	1.693834
2.500488	1.694069
2.500977	1.693860
2.501465	1.693997
2.501953	1.693807
2.502441	1.693987
2.502930	1.693975
2.503418	1.694096
2.503906	1.693835
2.504395	1.693569
2.504883	1.694010
2.505371	1.694247
2.505859	1.694087
2.506348	1.693746
2.506836	1.694010
2.507324	1.693970
2.507812	1.694546
2.508301	1.694362
2.508789	1.693963
2.509277	1.694082
2.509766	1.694532
2.510254	1.694568
2.510742	1.694302
2.511230	1.694133
2.511719	1.694226
2.512207	1.694400
2.512695	1.694333
2.513184	1.694328
2.513672	1.694082
2.514160	1.694291
2.514648	1.694316
2.515137	1.694095
2.515625	1.694120
2.516113	1.694146
2.516602	1.694176
2.517090	1.694209
2.517578	1.694348
2.518066	1.694244
2.518555	1.694201
2.519043	1.694137
2.519531	1.694352
2.520020	1.694461
2.520508	1.694551
2.520996	1.694229
2.521484	1.694489
2.521973	1.694706
2.522461	1.694555
2.522949	1.694426
2.523437	1.694364
2.523926	1.694311
2.524414	1.694488
2.524902	1.694563
2.525391	1.694279
2.525879	1.694247
2.526367	1.694376
2.526855	1.694511
2.527344	1.694367
2.527832	1.694585
2.528320	1.694290
2.528809	1.694674
2.529297	1.694762
2.529785	1.694689
2.530273	1.694450
2.530762	1.694374
2.531250	1.694617
2.531738	1.694951
2.532227	1.694403
2.532715	1.694482
2.533203	1.694228
2.533691	1.694530
2.534180	1.694653
2.534668	1.694503
2.535156	1.694353
2.535645	1.694483
2.536133	1.694809
2.536621	1.694679
2.537109	1.694701
2.537598	1.694444
2.538086	1.694728
2.538574	1.694599
2.539062	1.694674
2.539551	1.694835
2.540039	1.694571
2.540527	1.694641
2.541016	1.694735
2.541504	1.694767
2.541992	1.694539
2.542480	1.694510
2.542969	1.694514
2.543457	1.694680
2.543945	1.694468
2.544434	1.694298
2.544922	1.694460
2.545410	1.694658
2.545898	1.694482
2.546387	1.694543
2.546875	1.694568
2.547363	1.694430
2.547852	1.694582
2.548340	1.694571
2.548828	1.694370
2.549316	1.694264
2.549805	1.694322
2.550293	1.694535
2.550781	1.694384
2.551270	1.694234
2.551758	1.694324
2.552246	1.694090
2.552734	1.694092
2.553223	1.694122
2.553711	1.694018
2.554199	1.694165
2.554687	1.694092
2.555176	1.693901
2.555664	1.694123
2.556152	1.693888
2.556641	1.693938
2.557129	1.693847
2.557617	1.694020
2.558105	1.693877
2.558594	1.693812
2.559082	1.693697
2.559570	1.693779
2.560059	1.693950
2.560547	1.693822
2.561035	1.693745
2.561523	1.693646
2.562012	1.693684
2.562500	1.693995
2.562988	1.693830
2.563477	1.693535
2.563965	1.693497
2.564453	1.693719
2.564941	1.693830
2.565430	1.693384
2.565918	1.693707
2.566406	1.693706
2.566895	1.693569
2.567383	1.693636
2.567871	1.693558
2.568359	1.693458
2.568848	1.693597
2.569336	1.693566
2.569824	1.693337
2.570312	1.693664
2.570801	1.693501
2.571289	1.693473
2.571777	1.693384
2.572266	1.693573
2.572754	1.693618
2.573242	1.693248
2.573730	1.693166
2.574219	1.693494
2.574707	1.693589
2.575195	1.693467
2.575684	1.693434
2.576172	1.693337
2.576660	1.693683
2.577148	1.693569
2.577637	1.693593
2.578125	1.693537
2.578613	1.693576
2.579102	1.693433
2.579590	1.693719
2.580078	1.693672
2.580566	1.693692
2.581055	1.693749
2.581543	1.693334
2.582031	1.693588
2.582520	1.693680
2.583008	1.693547
2.583496	1.693418
2.583984	1.693746
2.584473	1.693564
2.584961	1.693602
2.585449	1.693567
2.585937	1.693685
2.586426	1.693837
2.586914	1.693689
2.587402	1.693682
2.587891	1.693640
2.588379	1.693762
2.588867	1.693791
2.589355	1.693867
2.589844	1.693748
2.590332	1.693894
2.590820	1.693828
2.591309	1.694005
2.591797	1.693968
2.592285	1.694093
2.592773	1.693740
2.593262	1.694186
2.593750	1.694128
2.594238	1.694214
2.594727	1.694125
2.595215	1.693851
2.595703	1.693856
2.596191	1.694048
2.596680	1.693898
2.597168	1.693943
2.597656	1.693780
2.598145	1.693927
2.598633	1.693879
2.599121	1.694023
2.599609	1.693921
2.600098	1.694006
2.600586	1.694000
2.601074	1.693993
2.601562	1.694361
2.602051	1.693965
2.602539	1.694217
2.603027	1.694265
2.603516	1.694210
2.604004	1.694158
2.604492	1.693977
2.604980	1.694042
2.605469	1.694069
2.605957	1.694330
2.606445	1.694236
2.606934	1.693952
2.607422	1.693911
2.607910	1.694164
2.608398	1.694097
2.608887	1.693973
2.609375	1.693901
2.609863	1.693969
2.610352	1.694218
2.610840	1.694117
2.611328	1.694039
2.611816	1.694042
2.612305	1.694043
2.612793	1.694325
2.613281	1.694066
2.613770	1.694023
2.614258	1.694253
2.614746	1.694262
2.615234	1.694386
2.615723	1.694323
2.616211	1.694079
2.616699	1.694160
2.617187	1.694330
2.617676	1.694368
2.618164	1.694232
2.618652	1.694224
2.619141	1.694311
2.619629	1.694245
2.620117	1.694214
2.620605	1.694402
2.621094	1.694242
2.621582	1.693887
2.622070	1.694038
2.622559	1.694121
2.623047	1.694221
2.623535	1.694168
2.624023	1.693991
2.624512	1.693945
2.625000	1.694363
2.625488	1.694107
2.625977	1.693957
2.626465	1.693929
2.626953	1.694065
2.627441	1.693973
2.627930	1.694006
2.628418	1.693921
2.628906	1.693835
2.629395	1.694063
2.629883	1.694141
2.630371	1.694186
2.630859	1.693817
2.631348	1.694032
2.631836	1.694214
2.632324	1.694253
2.632812	1.694244
2.633301	1.693993
2.633789	1.693905
2.634277	1.694029
2.634766	1.694098
2.635254	1.693772
2.635742	1.693887
2.636230	1.693825
2.636719	1.693993
2.637207	1.693642
2.637695	1.693752
2.638184	1.693860
2.638672	1.693764
2.639160	1.693520
2.639648	1.693866
2.640137	1.693866
2.640625	1.693704
2.641113	1.693686
2.641602	1.693708
2.642090	1.693720
2.642578	1.693641
2.643066	1.693533
2.643555	1.693338
2.644043	1.693774
2.644531	1.693741
2.645020	1.693386
2.645508	1.693390
2.645996	1.693758
2.646484	1.693757
2.646973	1.693694
2.647461	1.693647
2.647949	1.693536
2.648437	1.693619
2.648926	1.693713
2.649414	1.693710
2.649902	1.693402
2.650391	1.693481
2.650879	1.693520
2.651367	1.693440
2.651855	1.693159
2.652344	1.693301
2.652832	1.693262
2.653320	1.693283
2.653809	1.693228
2.654297	1.693335
2.654785	1.692998
2.655273	1.693486
2.655762	1.693411
2.656250	1.693564
2.656738	1.693473
2.657227	1.693469
2.657715	1.693423
2.658203	1.693350
2.658691	1.693484
2.659180	1.693400
2.659668	1.693234
2.660156	1.693156
2.660645	1.693619
2.661133	1.693487
2.661621	1.693602
2.662109	1.693458
2.662598	1.693219
2.663086	1.693538
2.663574	1.693352
2.664062	1.693368
2.664551	1.693278
2.665039	1.693325
2.665527	1.693494
2.666016	1.693360
2.666504	1.693264
2.666992	1.693221
2.667480	1.693116
2.667969	1.693368
2.668457	1.693257
2.668945	1.693497
2.669434	1.693556
2.669922	1.693702
2.670410	1.693722
2.670898	1.693573
2.671387	1.693518
2.671875	1.693572
2.672363	1.693730
2.672852	1.693384
2.673340	1.693589
2.673828	1.693561
2.674316	1.693480
2.674805	1.693473
2.675293	1.693762
2.675781	1.693472
2.676270	1.693581
2.676758	1.693610
2.677246	1.693558
2.677734	1.693581
2.678223	1.693775
2.678711	1.693483
2.679199	1.693537
2.679687	1.693794
2.680176	1.693988
2.680664	1.693741
2.681152	1.693702
2.681641	1.693804
2.682129	1.694046
2.682617	1.694020
2.683105	1.693887
2.683594	1.693667
2.684082	1.694059
2.684570	1.694211
2.685059	1.694176
2.685547	1.693951
2.686035	1.693869
2.686523	1.693871
2.687012	1.693983
2.687500	1.693919
2.687988	1.693746
2.688477	1.693705
2.688965	1.693887
2.689453	1.694038
2.689941	1.694078
2.690430	1.693971
2.690918	1.693882
2.691406	1.693995
2.691895	1.694218
2.692383	1.694132
2.692871	1.694140
2.693359	1.693968
2.693848	1.694012
2.694336	1.694245
2.694824	1.694049
2.695312	1.693956
2.695801	1.693946
2.696289	1.694157
2.696777	1.694401
2.697266	1.694223
2.697754	1.694192
2.698242	1.693894
2.698730	1.694049
2.699219	1.694513
2.699707	1.694217
2.700195	1.694229
2.700684	1.694098
2.701172	1.694105
2.701660	1.694365
2.702148	1.694497
2.702637	1.694099
2.703125	1.694132
2.703613	1.694135
2.704102	1.694031
2.704590	1.694049
2.705078	1.693957
2.705566	1.694156
2.706055	1.694254
2.706543	1.694244
2.707031	1.694038
2.707520	1.694113
2.708008	1.694184
2.708496	1.694150
2.708984	1.694328
2.709473	1.694159
2.709961	1.694201
2.710449	1.694275
2.710937	1.694482
2.711426	1.694335
2.711914	1.694364
2.712402	1.694367
2.712891	1.694375
2.713379	1.694319
2.713867	1.694204
2.714355	1.694132
2.714844	1.694175
2.715332	1.694218
2.715820	1.694250
2.716309	1.694040
2.716797	1.693894
2.717285	1.693988
2.717773	1.693885
2.718262	1.693954
2.718750	1.693840
2.719238	1.694172
2.719727	1.694027
2.720215	1.694231
2.720703	1.694186
2.721191	1.693928
2.721680	1.693880
2.722168	1.694024
2.722656	1.693912
2.723145	1.693660
2.723633	1.693871
2.724121	1.693952
2.724609	1.693821
2.725098	1.693817
2.725586	1.694083
2.726074	1.693940
2.726562	1.693911
2.727051	1.693906
2.727539	1.693953
2.728027	1.693973
2.728516	1.693759
2.729004	1.693732
2.729492	1.693866
2.729980	1.693856
2.730469	1.693952
2.730957	1.693544
2.731445	1.693452
2.731934	1.693827
2.732422	1.694046
2.732910	1.693621
2.733398	1.693480
2.733887	1.693360
2.734375	1.693652
2.734863	1.693694
2.735352	1.693502
2.735840	1.693282
2.736328	1.693455
2.736816	1.693584
2.737305	1.693750
2.737793	1.693359
2.738281	1.693744
2.738770	1.693602
2.739258	1.693517
2.739746	1.693612
2.740234	1.693775
2.740723	1.693417
2.741211	1.693649
2.741699	1.693649
2.742187	1.693591
2.742676	1.693503
2.743164	1.693366
2.743652	1.693331
2.744141	1.693599
2.744629	1.693653
2.745117	1.693580
2.745605	1.693377
2.746094	1.693475
2.746582	1.693721
2.747070	1.693758
2.747559	1.693322
2.748047	1.693458
2.748535	1.693628
2.749023	1.693722
2.749512	1.693709
2.750000	1.693555
2.750488	1.693536
2.750977	1.693675
2.751465	1.693825
2.751953	1.693843
2.752441	1.693694
2.752930	1.693607
2.753418	1.693680
2.753906	1.694129
2.754395	1.694136
2.754883	1.694042
2.755371	1.693808
2.755859	1.693755
2.756348	1.694007
2.756836	1.694017
2.757324	1.693777
2.757812	1.693558
2.758301	1.693788
2.758789	1.694062
2.759277	1.694090
2.759766	1.693977
2.760254	1.693774
2.760742	1.693999
2.761230	1.694198
2.761719	1.693993
2.762207	1.694041
2.762695	1.693898
2.763184	1.694223
2.763672	1.694045
2.764160	1.694122
2.764648	1.694311
2.765137	1.694005
2.765625	1.694277
2.766113	1.694319
2.766602	1.694246
2.767090	1.694096
2.767578	1.694389
2.768066	1.694281
2.768555	1.694327
2.769043	1.694277
2.769531	1.694408
2.770020	1.694156
2.770508	1.694168
2.770996	1.694291
2.771484	1.694346
2.771973	1.694187
2.772461	1.694147
2.772949	1.694314
2.773437	1.694136
2.773926	1.694443
2.774414	1.694435
2.774902	1.693996
2.775391	1.694307
2.775879	1.694476
2.776367	1.694305
2.776855	1.694023
2.777344	1.694326
2.777832	1.694589
2.778320	1.694532
2.778809	1.694290
2.779297	1.694293
2.779785	1.694370
2.780273	1.694616
2.780762	1.694544
2.781250	1.694120
2.781738	1.694332
2.782227	1.694260
2.782715	1.694355
2.783203	1.694499
2.783691	1.694142
2.784180	1.694290
2.784668	1.694179
2.785156	1.694318
2.785645	1.694332
2.786133	1.694048
2.786621	1.694071
2.787109	1.694165
2.787598	1.694336
2.788086	1.694110
2.788574	1.694168
2.789062	1.694220
2.789551	1.694112
2.790039	1.694350
2.790527	1.694422
2.791016	1.693949
2.791504	1.694011
2.791992	1.694538
2.792480	1.694551
2.792969	1.694104
2.793457	1.693973
2.793945	1.693977
2.794434	1.694223
2.794922	1.694588
2.795410	1.694353
2.795898	1.693835
2.796387	1.694192
2.796875	1.694507
2.797363	1.694394
2.797852	1.694229
2.798340	1.694022
2.798828	1.694213
2.799316	1.694245
2.799805	1.694316
2.800293	1.694082
2.800781	1.693862
2.801270	1.694208
2.801758	1.694177
2.802246	1.693872
2.802734	1.693848
2.803223	1.694085
2.803711	1.693969
2.804199	1.694191
2.804687	1.693949
2.805176	1.694007
2.805664	1.693843
2.806152	1.693826
2.806641	1.694296
2.807129	1.694142
2.807617	1.693916
2.808105	1.693841
2.808594	1.694067
2.809082	1.694264
2.809570	1.694243
2.810059	1.694049
2.810547	1.694128
2.811035	1.694141
2.811523	1.694198
2.812012	1.694230
2.812500	1.694144
2.812988	1.694100
2.813477	1.694103
2.813965	1.694126
2.814453	1.693869
2.814941	1.694073
2.815430	1.694083
2.815918	1.694020
2.816406	1.693974
2.816895	1.693888
2.817383	1.693858
2.817871	1.694125
2.818359	1.694000
2.818848	1.693949
2.819336	1.694140
2.819824	1.694057
2.820312	1.693995
2.820801	1.694040
2.821289	1.694106
2.821777	1.693937
2.822266	1.693592
2.822754	1.693928
2.823242	1.694065
2.823730	1.693891
2.824219	1.693743
2.824707	1.693753
2.825195	1.693816
2.825684	1.694100
2.826172	1.694045
2.826660	1.693705
2.827148	1.693664
2.827637	1.693947
2.828125	1.694026
2.828613	1.693554
2.829102	1.693564
2.829590	1.693982
2.830078	1.693912
2.830566	1.693962
2.831055	1.693791
2.831543	1.693912
2.832031	1.694021
2.832520	1.694375
2.833008	1.694003
2.833496	1.693960
2.833984	1.693739
2.834473	1.693833
2.834961	1.693995
2.835449	1.693921
2.835937	1.693786
2.836426	1.693680
2.836914	1.693647
2.837402	1.693977
2.837891	1.693886
2.838379	1.693786
2.838867	1.693572
2.839355	1.693807
2.839844	1.693932
2.840332	1.694037
2.840820	1.693724
2.841309	1.693811
2.841797	1.693834
2.842285	1.694046
2.842773	1.693916
2.843262	1.693754
2.843750	1.693918
2.844238	1.694072
2.844727	1.694174
2.845215	1.693926
2.845703	1.694173
2.846191	1.693935
2.846680	1.694392
2.847168	1.694308
2.847656	1.694389
2.848145	1.694256
2.848633	1.694393
2.849121	1.694164
2.849609	1.694215
2.850098	1.694436
2.850586	1.694363
2.851074	1.694070
2.851562	1.694246
2.852051	1.694398
2.852539	1.694248
2.853027	1.694212
2.853516	1.694228
2.854004	1.694276
2.854492	1.694392
2.854980	1.694101
2.855469	1.694191
2.855957	1.694334
2.856445	1.694286
2.856934	1.694323
2.857422	1.694389
2.857910	1.694090
2.858398	1.694554
2.858887	1.694605
2.859375	1.694530
2.859863	1.694420
2.860352	1.694629
2.860840	1.694510
2.861328	1.694553
2.861816	1.694651
2.862305	1.694421
2.862793	1.694278
2.863281	1.693962
2.863770	1.694352
2.864258	1.694092
2.864746	1.693998
2.865234	1.693811
2.865723	1.694167
2.866211	1.694191
2.866699	1.694218
2.867187	1.694162
2.867676	1.694022
2.868164	1.694131
2.868652	1.694173
2.869141	1.694197
2.869629	1.693993
2.870117	1.693976
2.870605	1.693932
2.871094	1.694189
2.871582	1.693914
2.872070	1.694308
2.872559	1.694189
2.873047	1.694347
2.873535	1.694516
2.874023	1.694298
2.874512	1.694153
2.875000	1.693994
2.875488	1.694239
2.875977	1.694538
2.876465	1.694197
2.876953	1.694098
2.877441	1.693924
2.877930	1.693896
2.878418	1.694328
2.878906	1.694208
2.879395	1.693993
2.879883	1.693942
2.880371	1.694458
2.880859	1.694386
2.881348	1.694224
2.881836	1.694207
2.882324	1.694021
2.882812	1.694227
2.883301	1.694016
2.883789	1.694137
2.884277	1.693815
2.884766	1.694054
2.885254	1.694240
2.885742	1.694331
2.886230	1.694115
2.886719	1.694463
2.887207	1.694216
2.887695	1.694591
2.888184	1.694526
2.888672	1.694247
2.889160	1.694079
2.889648	1.694504
2.890137	1.694417
2.890625	1.694486
2.891113	1.694204
2.891602	1.694083
2.892090	1.694159
2.892578	1.694406
2.893066	1.694333
2.893555	1.693965
2.894043	1.693998
2.894531	1.694243
2.895020	1.694342
2.895508	1.694153
2.895996	1.694447
2.896484	1.694019
2.896973	1.694441
2.897461	1.694413
2.897949	1.694504
2.898437	1.694055
2.898926	1.694027
2.899414	1.694518
2.899902	1.694594
2.900391	1.694244
2.900879	1.694095
2.901367	1.694253
2.901855	1.694412
2.902344	1.694779
2.902832	1.694521
2.903320	1.694110
2.903809	1.694363
2.904297	1.694466
2.904785	1.694542
2.905273	1.694433
2.905762	1.694248
2.906250	1.694456
2.906738	1.694418
2.907227	1.694284
2.907715	1.694546
2.908203	1.694386
2.908691	1.694110
2.909180	1.694345
2.909668	1.694498
2.910156	1.694314
2.910645	1.694364
2.911133	1.694334
2.911621	1.694456
2.912109	1.694353
2.912598	1.694334
2.913086	1.694282
2.913574	1.694266
2.914062	1.694549
2.914551	1.694461
2.915039	1.694289
2.915527	1.694272
2.916016	1.694636
2.916504	1.694446
2.916992	1.694643
2.917480	1.694336
2.917969	1.694275
2.918457	1.694287
2.918945	1.694629
2.919434	1.694325
2.919922	1.694287
2.920410	1.694288
2.920898	1.694451
2.921387	1.694065
2.921875	1.694198
2.922363	1.694184
2.922852	1.694139
2.923340	1.694174
2.923828	1.694442
2.924316	1.694247
2.924805	1.694297
2.925293	1.694341
2.925781	1.694542
2.926270	1.694636
2.926758	1.694383
2.927246	1.694363
2.927734	1.694197
2.928223	1.694646
2.928711	1.694435
2.929199	1.694469
2.929687	1.694174
2.930176	1.694514
2.930664	1.694509
2.931152	1.694556
2.931641	1.694212
2.932129	1.694317
2.932617	1.694464
2.933105	1.694409
2.933594	1.694214
2.934082	1.694537
2.934570	1.694265
2.935059	1.694519
2.935547	1.694651
2.936035	1.694463
2.936523	1.694215
2.937012	1.694330
2.937500	1.694444
2.937988	1.694594
2.938477	1.694594
2.938965	1.694372
2.939453	1.694502
2.939941	1.694615
2.940430	1.694906
2.940918	1.694540
2.941406	1.694607
2.941895	1.694579
2.942383	1.694502
2.942871	1.694532
2.943359	1.694544
2.943848	1.694263
2.944336	1.694550
2.944824	1.694541
2.945312	1.694439
2.945801	1.694275
2.946289	1.694309
2.946777	1.694364
2.947266	1.694575
2.947754	1.694407
2.948242	1.694431
2.948730	1.694244
2.949219	1.694486
2.949707	1.694646
2.950195	1.694639
2.950684	1.694297
2.951172	1.694252
2.951660	1.694489
2.952148	1.694518
2.952637	1.694476
2.953125	1.694264
2.953613	1.694216
2.954102	1.694415
2.954590	1.694525
2.955078	1.694442
2.955566	1.694229
2.956055	1.694155
2.956543	1.694245
2.957031	1.694427
2.957520	1.694352
2.958008	1.694112
2.958496	1.694033
2.958984	1.694239
2.959473	1.694218
2.959961	1.694140
2.960449	1.694029
2.960937	1.693977
2.961426	1.694197
2.961914	1.694378
2.962402	1.694076
2.962891	1.694009
2.963379	1.694045
2.963867	1.694294
2.964355	1.694343
2.964844	1.694254
2.965332	1.693935
2.965820	1.694054
2.966309	1.694212
2.966797	1.694453
2.967285	1.694680
2.967773	1.694316
2.968262	1.694175
2.968750	1.694405
2.969238	1.694412
2.969727	1.694199
2.970215	1.694226
2.970703	1.694235
2.971191	1.694370
2.971680	1.694203
2.972168	1.694240
2.972656	1.694187
2.973145	1.694253
2.973633	1.694354
2.974121	1.694348
2.974609	1.694061
2.975098	1.694190
2.975586	1.694204
2.976074	1.694424
2.976562	1.694421
2.977051	1.694182
2.977539	1.694197
2.978027	1.694479
2.978516	1.694462
2.979004	1.694516
2.979492	1.694427
2.979980	1.694528
2.980469	1.694580
2.980957	1.694622
2.981445	1.694452
2.981934	1.694527
2.982422	1.694433
2.982910	1.694605
2.983398	1.694374
2.983887	1.694442
2.984375	1.694384
2.984863	1.694335
2.985352	1.694682
2.985840	1.694642
2.986328	1.694492
2.986816	1.694452
2.987305	1.694509
2.987793	1.694677
2.988281	1.694860
2.988770	1.694558
2.989258	1.694460
2.989746	1.694586
2.990234	1.694948
2.990723	1.694628
2.991211	1.694594
2.991699	1.694418
2.992187	1.694647
2.992676	1.694636
2.993164	1.694812
2.993652	1.694492
2.994141	1.694676
2.994629	1.694727
2.995117	1.694757
2.995605	1.694646
2.996094	1.694654
2.996582	1.694409
2.997070	1.694756
2.997559	1.694934
2.998047	1.694657
2.998535	1.694461
2.999023	1.694458
2.999512	1.694611
3.000000	1.694796
3.000488	1.694629
3.000977	1.694611
3.001465	1.694461
3.001953	1.694789
3.002441	1.694932
3.002930	1.694665
3.003418	1.694703
3.003906	1.694689
3.004395	1.694640
3.004883	1.694697
3.005371	1.694989
3.005859	1.694617
3.006348	1.694843
3.006836	1.694799
3.007324	1.694839
3.007812	1.694824
3.008301	1.694823
3.008789	1.694831
3.009277	1.694921
3.009766	1.694768
3.010254	1.694826
3.010742	1.694700
3.011230	1.694813
3.011719	1.694759
3.012207	1.694613
3.012695	1.694746
3.013184	1.694464
3.013672	1.694510
3.014160	1.694713
3.014648	1.694687
3.015137	1.694630
3.015625	1.694677
3.016113	1.694690
3.016602	1.694715
3.017090	1.694734
3.017578	1.694621
3.018066	1.694514
3.018555	1.694741
3.019043	1.694807
3.019531	1.694550
3.020020	1.694799
3.020508	1.694617
3.020996	1.694761
3.021484	1.694777
3.021973	1.694629
3.022461	1.694571
3.022949	1.694895
3.023437	1.694699
3.023926	1.694632
3.024414	1.694539
3.024902	1.694234
3.025391	1.694442
3.025879	1.694520
3.026367	1.694564
3.026855	1.694344
3.027344	1.694461
3.027832	1.694416
3.028320	1.694638
3.028809	1.694603
3.029297	1.694536
3.029785	1.694553
3.030273	1.694901
3.030762	1.694959
3.031250	1.694823
3.031738	1.694622
3.032227	1.694406
3.032715	1.694630
3.033203	1.694804
3.033691	1.694714
3.034180	1.694647
3.034668	1.694683
3.035156	1.694661
3.035645	1.694802
3.036133	1.694783
3.036621	1.694619
3.037109	1.694536
3.037598	1.694751
3.038086	1.694846
3.038574	1.694873
3.039062	1.694552
3.039551	1.694281
3.040039	1.694592
3.040527	1.694728
3.041016	1.694645
3.041504	1.694687
3.041992	1.694619
3.042480	1.694772
3.042969	1.694473
3.043457	1.694276
3.043945	1.694581
3.044434	1.694379
3.044922	1.694651
3.045410	1.694474
3.045898	1.694206
3.046387	1.694502
3.046875	1.694785
3.047363	1.694799
3.047852	1.694787
3.048340	1.694290
3.048828	1.694148
3.049316	1.694536
3.049805	1.694514
3.050293	1.694456
3.050781	1.694325
3.051270	1.693995
3.051758	1.694331
3.052246	1.694769
3.052734	1.694322
3.053223	1.693860
3.053711	1.694173
3.054199	1.694348
3.054687	1.694365
3.055176	1.694236
3.055664	1.694076
3.056152	1.694153
3.056641	1.693921
3.057129	1.694121
3.057617	1.694026
3.058105	1.693964
3.058594	1.693998
3.059082	1.694116
3.059570	1.694101
3.060059	1.694263
3.060547	1.694188
3.061035	1.694062
3.061523	1.694215
3.062012	1.694311
3.062500	1.694186
3.062988	1.693976
3.063477	1.693922
3.063965	1.694305
3.064453	1.694108
3.064941	1.694053
3.065430	1.693865
3.065918	1.693915
3.066406	1.694052
3.066895	1.694381
3.067383	1.693970
3.067871	1.693846
3.068359	1.693970
3.068848	1.694300
3.069336	1.694195
3.069824	1.694021
3.070312	1.693777
3.070801	1.693987
3.071289	1.694006
3.071777	1.694117
3.072266	1.694201
3.072754	1.694018
3.073242	1.694275
3.073730	1.694183
3.074219	1.694044
3.074707	1.694151
3.075195	1.694009
3.075684	1.694268
3.076172	1.694290
3.076660	1.694220
3.077148	1.694187
3.077637	1.694208
3.078125	1.694285
3.078613	1.694446
3.079102	1.694450
3.079590	1.694367
3.080078	1.694248
3.080566	1.694591
3.081055	1.694531
3.081543	1.694632
3.082031	1.694202
3.082520	1.694316
3.083008	1.694192
3.083496	1.694438
3.083984	1.694307
3.084473	1.694162
3.084961	1.694191
3.085449	1.694494
3.085937	1.694399
3.086426	1.694535
3.086914	1.694337
3.087402	1.694363
3.087891	1.694654
3.088379	1.694652
3.088867	1.694482
3.089355	1.694349
3.089844	1.694461
3.090332	1.694701
3.090820	1.694681
3.091309	1.694442
3.091797	1.694364
3.092285	1.694190
3.092773	1.694667
3.093262	1.694395
3.093750	1.694146
3.094238	1.693991
3.094727	1.694453
3.095215	1.694316
3.095703	1.694613
3.096191	1.694381
3.096680	1.694168
3.097168	1.694472
3.097656	1.694520
3.098145	1.694632
3.098633	1.694132
3.099121	1.694356
3.099609	1.694648
3.100098	1.694719
3.100586	1.694532
3.101074	1.694352
3.101562	1.694406
3.102051	1.694768
3.102539	1.694995
3.103027	1.694696
3.103516	1.694522
3.104004	1.694181
3.104492	1.694380
3.104980	1.694482
3.105469	1.694574
3.105957	1.694353
3.106445	1.694419
3.106934	1.694531
3.107422	1.694441
3.107910	1.694349
3.108398	1.694350
3.108887	1.694356
3.109375	1.694432
3.109863	1.694457
3.110352	1.694525
3.110840	1.694328
3.111328	1.694328
3.111816	1.694544
3.112305	1.694547
3.112793	1.694425
3.113281	1.694511
3.113770	1.694439
3.114258	1.694648
3.114746	1.694543
3.115234	1.694483
3.115723	1.694276
3.116211	1.694251
3.116699	1.694429
3.117187	1.694585
3.117676	1.694425
3.118164	1.694245
3.118652	1.694703
3.119141	1.694460
3.119629	1.694775
3.120117	1.694369
3.120605	1.694532
3.121094	1.694273
3.121582	1.694420
3.122070	1.694582
3.122559	1.694406
3.123047	1.694230
3.123535	1.694533
3.124023	1.694359
3.124512	1.694443
3.125000	1.694237
3.125488	1.694108
3.125977	1.694130
3.126465	1.694439
3.126953	1.694615
3.127441	1.694421
3.127930	1.694322
3.128418	1.694353
3.128906	1.694492
3.129395	1.694291
3.129883	1.694383
3.130371	1.694146
3.130859	1.694181
3.131348	1.694413
3.131836	1.694373
3.132324	1.693983
3.132812	1.694057
3.133301	1.694248
3.133789	1.694302
3.134277	1.694321
3.134766	1.693907
3.135254	1.694098
3.135742	1.694173
3.136230	1.694139
3.136719	1.693924
3.137207	1.693832
3.137695	1.693891
3.138184	1.694045
3.138672	1.694031
3.139160	1.693941
3.139648	1.693788
3.140137	1.694131
3.140625	1.694109
3.141113	1.694067
3.141602	1.693860
3.142090	1.693886
3.142578	1.693798
3.143066	1.694049
3.143555	1.693905
3.144043	1.693624
3.144531	1.693566
3.145020	1.693775
3.145508	1.693656
3.145996	1.694037
3.146484	1.693558
3.146973	1.693466
3.147461	1.693541
3.147949	1.693617
3.148437	1.693494
3.148926	1.693431
3.149414	1.693271
3.149902	1.693603
3.150391	1.693484
3.150879	1.693531
3.151367	1.693621
3.151855	1.693548
3.152344	1.693373
3.152832	1.693665
3.153320	1.693459
3.153809	1.693332
3.154297	1.693573
3.154785	1.693658
3.155273	1.693586
3.155762	1.693640
3.156250	1.693505
3.156738	1.693448
3.157227	1.693479
3.157715	1.693927
3.158203	1.693622
3.158691	1.693625
3.159180	1.693408
3.159668	1.693837
3.160156	1.693768
3.160645	1.693786
3.161133	1.693526
3.161621	1.693648
3.162109	1.693581
3.162598	1.693624
3.163086	1.693586
3.163574	1.693384
3.164062	1.693399
3.164551	1.693694
3.165039	1.693561
3.165527	1.693491
3.166016	1.693633
3.166504	1.693708
3.166992	1.693811
3.167480	1.693769
3.167969	1.693771
3.168457	1.693649
3.168945	1.693873
3.169434	1.694159
3.169922	1.694038
3.170410	1.693827
3.170898	1.693843
3.171387	1.693810
3.171875	1.693906
3.172363	1.694109
3.172852	1.693772
3.173340	1.693450
3.173828	1.693724
3.174316	1.693921
3.174805	1.693824
3.175293	1.693679
3.175781	1.693727
3.176270	1.693769
3.176758	1.693730
3.177246	1.693743
3.177734	1.693564
3.178223	1.693595
3.178711	1.693887
3.179199	1.693879
3.179687	1.693793
3.180176	1.693775
3.180664	1.693998
3.181152	1.694032
3.181641	1.694389
3.182129	1.694120
3.182617	1.694002
3.183105	1.694175
3.183594	1.694384
3.184082	1.694284
3.184570	1.694295
3.185059	1.694014
3.185547	1.694212
3.186035	1.694216
3.186523	1.694277
3.187012	1.693924
3.187500	1.694017
3.187988	1.694202
3.188477	1.694159
3.188965	1.693991
3.189453	1.694257
3.189941	1.694142
3.190430	1.694343
3.190918	1.694356
3.191406	1.694290
3.191895	1.694087
3.192383	1.694089
3.192871	1.694184
3.193359	1.694409
3.193848	1.694161
3.194336	1.694215
3.194824	1.694176
3.195312	1.694208
3.195801	1.694535
3.196289	1.694376
3.196777	1.694280
3.197266	1.694323
3.197754	1.694283
3.198242	1.694225
3.198730	1.694499
3.199219	1.694183
3.199707	1.694168
3.200195	1.694236
3.200684	1.694179
3.201172	1.694200
3.201660	1.694367
3.202148	1.694243
3.202637	1.694402
3.203125	1.694285
3.203613	1.694013
3.204102	1.694127
3.204590	1.694242
3.205078	1.694293
3.205566	1.694099
3.206055	1.694322
3.206543	1.694010
3.207031	1.694089
3.207520	1.694160
3.208008	1.694220
3.208496	1.694183
3.208984	1.694327
3.209473	1.694421
3.209961	1.694539
3.210449	1.694381
3.210937	1.694104
3.211426	1.694125
3.211914	1.694173
3.212402	1.694206
3.212891	1.693980
3.213379	1.693968
3.213867	1.693743
3.214355	1.694058
3.214844	1.693952
3.215332	1.693739
3.215820	1.693829
3.216309	1.694131
3.216797	1.693929
3.217285	1.693710
3.217773	1.694007
3.218262	1.693968
3.218750	1.693854
3.219238	1.694001
3.219727	1.693976
3.220215	1.693974
3.220703	1.694150
3.221191	1.693846
3.221680	1.693655
3.222168	1.693906
3.222656	1.693968
3.223145	1.693566
3.223633	1.693517
3.224121	1.693812
3.224609	1.693678
3.225098	1.693656
3.225586	1.693638
3.226074	1.693563
3.226562	1.693847
3.227051	1.693505
3.227539	1.693283
3.228027	1.693168
3.228516	1.693340
3.229004	1.693434
3.229492	1.693428
3.229980	1.693339
3.230469	1.693296
3.230957	1.693379
3.231445	1.693496
3.231934	1.693492
3.232422	1.693329
3.232910	1.693414
3.233398	1.693303
3.233887	1.693492
3.234375	1.693396
3.234863	1.693181
3.235352	1.693131
3.235840	1.693364
3.236328	1.693431
3.236816	1.693453
3.237305	1.693298
3.237793	1.693270
3.238281	1.693425
3.238770	1.693387
3.239258	1.693425
3.239746	1.693251
3.240234	1.693287
3.240723	1.693327
3.241211	1.693413
3.241699	1.693287
3.242187	1.693127
3.242676	1.693107
3.243164	1.693301
3.243652	1.693306
3.244141	1.693289
3.244629	1.693237
3.245117	1.693267
3.245605	1.693024
3.246094	1.693378
3.246582	1.693440
3.247070	1.693129
3.247559	1.693259
3.248047	1.693234
3.248535	1.693442
3.249023	1.693495
3.249512	1.693272
3.250000	1.693287
3.250488	1.693381
3.250977	1.693476
3.251465	1.693484
3.251953	1.693354
3.252441	1.693354
3.252930	1.693181
3.253418	1.693328
3.253906	1.693311
3.254395	1.693050
3.254883	1.693245
3.255371	1.693140
3.255859	1.693392
3.256348	1.693172
3.256836	1.693110
3.257324	1.693311
3.257812	1.693273
3.258301	1.693587
3.258789	1.693430
3.259277	1.693385
3.259766	1.693626
3.260254	1.693455
3.260742	1.693643
3.261230	1.693653
3.261719	1.693504
3.262207	1.693754
3.262695	1.693647
3.263184	1.693716
3.263672	1.693413
3.264160	1.693200
3.264648	1.693730
3.265137	1.693774
3.265625	1.693429
3.266113	1.693278
3.266602	1.693660
3.267090	1.693674
3.267578	1.693841
3.268066	1.693537
3.268555	1.693545
3.269043	1.693571
3.269531	1.693858
3.270020	1.693792
3.270508	1.693702
3.270996	1.693475
3.271484	1.693705
3.271973	1.693617
3.272461	1.693696
3.272949	1.693552
3.273437	1.693455
3.273926	1.693694
3.274414	1.693869
3.274902	1.693577
3.275391	1.693552
3.275879	1.693658
3.276367	1.693891
3.276855	1.694001
3.277344	1.693910
3.277832	1.693788
3.278320	1.693593
3.278809	1.693918
3.279297	1.693793
3.279785	1.693860
3.280273	1.693742
3.280762	1.693752
3.281250	1.693733
3.281738	1.694016
3.282227	1.693885
3.282715	1.693809
3.283203	1.693874
3.283691	1.693683
3.284180	1.693772
3.284668	1.693826
3.285156	1.693718
3.285645	1.693828
3.286133	1.693883
3.286621	1.693886
3.287109	1.693810
3.287598	1.693772
3.288086	1.693851
3.288574	1.694041
3.289062	1.694148
3.289551	1.693946
3.290039	1.693822
3.290527	1.693962
3.291016	1.694193
3.291504	1.694138
3.291992	1.694018
3.292480	1.694079
3.292969	1.693727
3.293457	1.694078
3.293945	1.693938
3.294434	1.693890
3.294922	1.693645
3.295410	1.693976
3.295898	1.694097
3.296387	1.694187
3.296875	1.693953
3.297363	1.693832
3.297852	1.693843
3.298340	1.694265
3.298828	1.693974
3.299316	1.693744
3.299805	1.693812
3.300293	1.694118
3.300781	1.694029
3.301270	1.694027
3.301758	1.693819
3.302246	1.693788
3.302734	1.694085
3.303223	1.694082
3.303711	1.693763
3.304199	1.693885
3.304687	1.693880
3.305176	1.693899
3.305664	1.694279
3.306152	1.693866
3.306641	1.693984
3.307129	1.693944
3.307617	1.694002
3.308105	1.693954
3.308594	1.693857
3.309082	1.693764
3.309570	1.693844
3.310059	1.693862
3.310547	1.693981
3.311035	1.693533
3.311523	1.693530
3.312012	1.693901
3.312500	1.693909
3.312988	1.693464
3.313477	1.693559
3.313965	1.693711
3.314453	1.693768
3.314941	1.693791
3.315430	1.693767
3.315918	1.693752
3.316406	1.693659
3.316895	1.693752
3.317383	1.693674
3.317871	1.693397
3.318359	1.693781
3.318848	1.693457
3.319336	1.693469
3.319824	1.693522
3.320312	1.693680
3.320801	1.693416
3.321289	1.693652
3.321777	1.693462
3.322266	1.693511
3.322754	1.693447
3.323242	1.693363
3.323730	1.693228
3.324219	1.693379
3.324707	1.693533
3.325195	1.693478
3.325684	1.693249
3.326172	1.693274
3.326660	1.693341
3.327148	1.693420
3.327637	1.693241
3.328125	1.693149
3.328613	1.693317
3.329102	1.693427
3.329590	1.693483
3.330078	1.693491
3.330566	1.693448
3.331055	1.693289
3.331543	1.693372
3.332031	1.693564
3.332520	1.693652
3.333008	1.693397
3.333496	1.693497
3.333984	1.693262
3.334473	1.693367
3.334961	1.693339
3.335449	1.693242
3.335937	1.693595
3.336426	1.693596
3.336914	1.693629
3.337402	1.693307
3.337891	1.693338
3.338379	1.693523
3.338867	1.693591
3.339355	1.693624
3.339844	1.693422
3.340332	1.693750
3.340820	1.693828
3.341309	1.693625
3.341797	1.693842
3.342285	1.693737
3.342773	1.693800
3.343262	1.693934
3.343750	1.693976
3.344238	1.693866
3.344727	1.693919
3.345215	1.693868
3.345703	1.694071
3.346191	1.694166
3.346680	1.694076
3.347168	1.693892
3.347656	1.693955
3.348145	1.694093
3.348633	1.694092
3.349121	1.694056
3.349609	1.693897
3.350098	1.693888
3.350586	1.693904
3.351074	1.694478
3.351562	1.694394
3.352051	1.693718
3.352539	1.693988
3.353027	1.694377
3.353516	1.694333
3.354004	1.694286
3.354492	1.694095
3.354980	1.694009
3.355469	1.694322
3.355957	1.694399
3.356445	1.694228
3.356934	1.693864
3.357422	1.694292
3.357910	1.694351
3.358398	1.694418
3.358887	1.694296
3.359375	1.694161
3.359863	1.694277
3.360352	1.694738
3.360840	1.694798
3.361328	1.694129
3.361816	1.694386
3.362305	1.694415
3.362793	1.694630
3.363281	1.694611
3.363770	1.694321
3.364258	1.694234
3.364746	1.694215
3.365234	1.694435
3.365723	1.694569
3.366211	1.694497
3.366699	1.694355
3.367187	1.694428
3.367676	1.694786
3.368164	1.694748
3.368652	1.694617
3.369141	1.694575
3.369629	1.694533
3.370117	1.694812
3.370605	1.694851
3.371094	1.694535
3.371582	1.694496
3.372070	1.694602
3.372559	1.694633
3.373047	1.694849
3.373535	1.694676
3.374023	1.694645
3.374512	1.694743
3.375000	1.694649
3.375488	1.694536
3.375977	1.694456
3.376465	1.694512
3.376953	1.694580
3.377441	1.694525
3.377930	1.694479
3.378418	1.694425
3.378906	1.694442
3.379395	1.694526
3.379883	1.694616
3.380371	1.694665
3.380859	1.694710
3.381348	1.694502
3.381836	1.694722
3.382324	1.694410
3.382812	1.694276
3.383301	1.694296
3.383789	1.694311
3.384277	1.694687
3.384766	1.694585
3.385254	1.694571
3.385742	1.694345
3.386230	1.694435
3.386719	1.694633
3.387207	1.694776
3.387695	1.694463
3.388184	1.694388
3.388672	1.694507
3.389160	1.694675
3.389648	1.694668
3.390137	1.694551
3.390625	1.694328
3.391113	1.694381
3.391602	1.694619
3.392090	1.694640
3.392578	1.694505
3.393066	1.694384
3.393555	1.694098
3.394043	1.694524
3.394531	1.694575
3.395020	1.694237
3.395508	1.694328
3.395996	1.694430
3.396484	1.694439
3.396973	1.694124
3.397461	1.694055
3.397949	1.694118
3.398437	1.694360
3.398926	1.694181
3.399414	1.694359
3.399902	1.694276
3.400391	1.694255
3.400879	1.694467
3.401367	1.694406
3.401855	1.694287
3.402344	1.693910
3.402832	1.694038
3.403320	1.694295
3.403809	1.694237
3.404297	1.694047
3.404785	1.693946
3.405273	1.693775
3.405762	1.694214
3.406250	1.694572
3.406738	1.693988
3.407227	1.693691
3.407715	1.694342
3.408203	1.694495
3.408691	1.694230
3.409180	1.694116
3.409668	1.694021
3.410156	1.694254
3.410645	1.694110
3.411133	1.694193
3.411621	1.694121
3.412109	1.693976
3.412598	1.693840
3.413086	1.694093
3.413574	1.694028
3.414062	1.694045
3.414551	1.693933
3.415039	1.693960
3.415527	1.693940
3.416016	1.694008
3.416504	1.693839
3.416992	1.693658
3.417480	1.693843
3.417969	1.694182
3.418457	1.694021
3.418945	1.693850
3.419434	1.693692
3.419922	1.694085
3.420410	1.694278
3.420898	1.694397
3.421387	1.694056
3.421875	1.694095
3.422363	1.694134
3.422852	1.694272
3.423340	1.694226
3.423828	1.694085
3.424316	1.694251
3.424805	1.694414
3.425293	1.694165
3.425781	1.694114
3.426270	1.694255
3.426758	1.694104
3.427246	1.694331
3.427734	1.694388
3.428223	1.694270
3.428711	1.693930
3.429199	1.694127
3.429687	1.694411
3.430176	1.694424
3.430664	1.694121
3.431152	1.694173
3.431641	1.694008
3.432129	1.694376
3.432617	1.694330
3.433105	1.694235
3.433594	1.693901
3.434082	1.694253
3.434570	1.694408
3.435059	1.694414
3.435547	1.694247
3.436035	1.694253
3.436523	1.694389
3.437012	1.694613
3.437500	1.694673
3.437988	1.694381
3.438477	1.694521
3.438965	1.694546
3.439453	1.694819
3.439941	1.694619
3.440430	1.694743
3.440918	1.694690
3.441406	1.694734
3.441895	1.694791
3.442383	1.694691
3.442871	1.694569
3.443359	1.694251
3.443848	1.694375
3.444336	1.694812
3.444824	1.694694
3.445312	1.694163
3.445801	1.694311
3.446289	1.694644
3.446777	1.694608
3.447266	1.694782
3.447754	1.694431
3.448242	1.694476
3.448730	1.694597
3.449219	1.694877
3.449707	1.694544
3.450195	1.694683
3.450684	1.694872
3.451172	1.694837
3.451660	1.694788
3.452148	1.694751
3.452637	1.694744
3.453125	1.694807
3.453613	1.694505
3.454102	1.694795
3.454590	1.694751
3.455078	1.694696
3.455566	1.694768
3.456055	1.694705
3.456543	1.694796
3.457031	1.694532
3.457520	1.694634
3.458008	1.694379
3.458496	1.694543
3.458984	1.694657
3.459473	1.694475
3.459961	1.694373
3.460449	1.694702
3.460937	1.694795
3.461426	1.694550
3.461914	1.694467
3.462402	1.694377
3.462891	1.694616
3.463379	1.694416
3.463867	1.694341
3.464355	1.694404
3.464844	1.694485
3.465332	1.694381
3.465820	1.694425
3.466309	1.694506
3.466797	1.694341
3.467285	1.694522
3.467773	1.694532
3.468262	1.694643
3.468750	1.694259
3.469238	1.694243
3.469727	1.694260
3.470215	1.694436
3.470703	1.694381
3.471191	1.694203
3.471680	1.694027
3.472168	1.694248
3.472656	1.694350
3.473145	1.694297
3.473633	1.694054
3.474121	1.694095
3.474609	1.694031
3.475098	1.694444
3.475586	1.694295
3.476074	1.694113
3.476562	1.694067
3.477051	1.694229
3.477539	1.694435
3.478027	1.694243
3.478516	1.693970
3.479004	1.694253
3.479492	1.694267
3.479980	1.694430
3.480469	1.694273
3.480957	1.694185
3.481445	1.694211
3.481934	1.694414
3.482422	1.694214
3.482910	1.694192
3.483398	1.693716
3.483887	1.693871
3.484375	1.694211
3.484863	1.694103
3.485352	1.694048
3.485840	1.693935
3.486328	1.693967
3.486816	1.694127
3.487305	1.694238
3.487793	1.694139
3.488281	1.693997
3.488770	1.694063
3.489258	1.694160
3.489746	1.694264
3.490234	1.694137
3.490723	1.694000
3.491211	1.694031
3.491699	1.694284
3.492187	1.694345
3.492676	1.693966
3.493164	1.693960
3.493652	1.694347
3.494141	1.694192
3.494629	1.693963
3.495117	1.694073
3.495605	1.693791
3.496094	1.694071
3.496582	1.694337
3.497070	1.693945
3.497559	1.693899
3.498047	1.694031
3.498535	1.694250
3.499023	1.694145
3.499512	1.694190
3.500000	1.694156
3.500488	1.694134
3.500977	1.694010
3.501465	1.694287
3.501953	1.694233
3.502441	1.694026
3.502930	1.694010
3.503418	1.694290
3.503906	1.694137
3.504395	1.694309
3.504883	1.694013
3.505371	1.694323
3.505859	1.694336
3.506348	1.694497
3.506836	1.694393
3.507324	1.694067
3.507812	1.694326
3.508301	1.694620
3.508789	1.694382
3.509277	1.694141
3.509766	1.694468
3.510254	1.694500
3.510742	1.694455
3.511230	1.694546
3.511719	1.694273
3.512207	1.694273
3.512695	1.694346
3.513184	1.694481
3.513672	1.694162
3.514160	1.694258
3.514648	1.694297
3.515137	1.694348
3.515625	1.694418
3.516113	1.694610
3.516602	1.694501
3.517090	1.694366
3.517578	1.694535
3.518066	1.694618
3.518555	1.694561
3.519043	1.694663
3.519531	1.694629
3.520020	1.694593
3.520508	1.694775
3.520996	1.694303
3.521484	1.694285
3.521973	1.694298
3.522461	1.694582
3.522949	1.694839
3.523437	1.694607
3.523926	1.694511
3.524414	1.694422
3.524902	1.694565
3.525391	1.694627
3.525879	1.694536
3.526367	1.694381
3.526855	1.694330
3.527344	1.694625
3.527832	1.694582
3.528320	1.694498
3.528809	1.694434
3.529297	1.694477
3.529785	1.694743
3.530273	1.694862
3.530762	1.694715
3.531250	1.694578
3.531738	1.694741
3.532227	1.694770
3.532715	1.694942
3.533203	1.694765
3.533691	1.694590
3.534180	1.694654
3.534668	1.694929
3.535156	1.694795
3.535645	1.694848
3.536133	1.694531
3.536621	1.694745
3.537109	1.694516
3.537598	1.694812
3.538086	1.694610
3.538574	1.694385
3.539062	1.694553
3.539551	1.694680
3.540039	1.694922
3.540527	1.694671
3.541016	1.694611
3.541504	1.694640
3.541992	1.694790
3.542480	1.694456
3.542969	1.694475
3.543457	1.694507
3.543945	1.694503
3.544434	1.694600
3.544922	1.694708
3.545410	1.694520
3.545898	1.694351
3.546387	1.694807
3.546875	1.694646
3.547363	1.694550
3.547852	1.694422
3.548340	1.694676
3.548828	1.694660
3.549316	1.694317
3.549805	1.694610
3.550293	1.694436
3.550781	1.694314
3.551270	1.694319
3.551758	1.694726
3.552246	1.694329
3.552734	1.694400
3.553223	1.694358
3.553711	1.694389
3.554199	1.694353
3.554687	1.694237
3.555176	1.694254
3.555664	1.694254
3.556152	1.694320
3.556641	1.694314
3.557129	1.694262
3.557617	1.694145
3.558105	1.694254
3.558594	1.694486
3.559082	1.694343
3.559570	1.694337
3.560059	1.694208
3.560547	1.694599
3.561035	1.694339
3.561523	1.694553
3.562012	1.694433
3.562500	1.694217
3.562988	1.694093
3.563477	1.694247
3.563965	1.694095
3.564453	1.694207
3.564941	1.694157
3.565430	1.694119
3.565918	1.694173
3.566406	1.694097
3.566895	1.693961
3.567383	1.693926
3.567871	1.693998
3.568359	1.694015
3.568848	1.693808
3.569336	1.693758
3.569824	1.693856
3.570312	1.693843
3.570801	1.694024
3.571289	1.693990
3.571777	1.693962
3.572266	1.693888
3.572754	1.694429
3.573242	1.694137
3.573730	1.694327
3.574219	1.694223
3.574707	1.694057
3.575195	1.693949
3.575684	1.693959
3.576172	1.694023
3.576660	1.693959
3.577148	1.693809
3.577637	1.693955
3.578125	1.693752
3.578613	1.693753
3.579102	1.693984
3.579590	1.693964
3.580078	1.693797
3.580566	1.693943
3.581055	1.693915
3.581543	1.693812
3.582031	1.693957
3.582520	1.693975
3.583008	1.693905
3.583496	1.693721
3.583984	1.693755
3.584473	1.693782
3.584961	1.693912
3.585449	1.694048
3.585937	1.693904
3.586426	1.693757
3.586914	1.693838
3.587402	1.694108
3.587891	1.693990
3.588379	1.693870
3.588867	1.693693
3.589355	1.693901
3.589844	1.693904
3.590332	1.693910
3.590820	1.693675
3.591309	1.693650
3.591797	1.693851
3.592285	1.693889
3.592773	1.693491
3.593262	1.693686
3.593750	1.693672
3.594238	1.693816
3.594727	1.693700
3.595215	1.693754
3.595703	1.693462
3.596191	1.693760
3.596680	1.693909
3.597168	1.693917
3.597656	1.693762
3.598145	1.693819
3.598633	1.693775
3.599121	1.693962
3.599609	1.694066
3.600098	1.693943
3.600586	1.693839
3.601074	1.693722
3.601562	1.694157
3.602051	1.693979
3.602539	1.694173
3.603027	1.693963
3.603516	1.693800
3.604004	1.694007
3.604492	1.694065
3.604980	1.693837
3.605469	1.693826
3.605957	1.694043
3.606445	1.694297
3.606934	1.694112
3.607422	1.694042
3.607910	1.693916
3.608398	1.693964
3.608887	1.694301
3.609375	1.694056
3.609863	1.694029
3.610352	1.694013
3.610840	1.694242
3.611328	1.694234
3.611816	1.694499
3.612305	1.694146
3.612793	1.694456
3.613281	1.694406
3.613770	1.694430
3.614258	1.694334
3.614746	1.694377
3.615234	1.694443
3.615723	1.694805
3.616211	1.694704
3.616699	1.694642
3.617187	1.694326
3.617676	1.694107
3.618164	1.694576
3.618652	1.694634
3.619141	1.694598
3.619629	1.694440
3.620117	1.694589
3.620605	1.694762
3.621094	1.694688
3.621582	1.694707
3.622070	1.694394
3.622559	1.694565
3.623047	1.695040
3.623535	1.694816
3.624023	1.694738
3.624512	1.694558
3.625000	1.694505
3.625488	1.694743
3.625977	1.694778
3.626465	1.694655
3.626953	1.694560
3.627441	1.694727
3.627930	1.694826
3.628418	1.694975
3.628906	1.694621
3.629395	1.694652
3.629883	1.694944
3.630371	1.695175
3.630859	1.694944
3.631348	1.694636
3.631836	1.694672
3.632324	1.694622
3.632812	1.694602
3.633301	1.694533
3.633789	1.694481
3.634277	1.694585
3.634766	1.694626
3.635254	1.694600
3.635742	1.694594
3.636230	1.694358
3.636719	1.694355
3.637207	1.694567
3.637695	1.694732
3.638184	1.694536
3.638672	1.694476
3.639160	1.694430
3.639648	1.694383
3.640137	1.694846
3.640625	1.694664
3.641113	1.694532
3.641602	1.694369
3.642090	1.694812
3.642578	1.694649
3.643066	1.694932
3.643555	1.694541
3.644043	1.694405
3.644531	1.694637
3.645020	1.694768
3.645508	1.694619
3.645996	1.694389
3.646484	1.694580
3.646973	1.694683
3.647461	1.694601
3.647949	1.694529
3.648437	1.694365
3.648926	1.694467
3.649414	1.694608
3.649902	1.694677
3.650391	1.694431
3.650879	1.694390
3.651367	1.694569
3.651855	1.694756
3.652344	1.694807
3.652832	1.694564
3.653320	1.694554
3.653809	1.694646
3.654297	1.694671
3.654785	1.694701
3.655273	1.694444
3.655762	1.694528
3.656250	1.694627
3.656738	1.694599
3.657227	1.694504
3.657715	1.694615
3.658203	1.694348
3.658691	1.694375
3.659180	1.694627
3.659668	1.694512
3.660156	1.694385
3.660645	1.694412
3.661133	1.694381
3.661621	1.694632
3.662109	1.694323
3.662598	1.694162
3.663086	1.694325
3.663574	1.694226
3.664062	1.694507
3.664551	1.694184
3.665039	1.694045
3.665527	1.694273
3.666016	1.694461
3.666504	1.694531
3.666992	1.694428
3.667480	1.694314
3.667969	1.694395
3.668457	1.694403
3.668945	1.694297
3.669434	1.694306
3.669922	1.694162
3.670410	1.694376
3.670898	1.694464
3.671387	1.694305
3.671875	1.694326
3.672363	1.694421
3.672852	1.694188
3.673340	1.694233
3.673828	1.694205
3.674316	1.694141
3.674805	1.694083
3.675293	1.694172
3.675781	1.694449
3.676270	1.694162
3.676758	1.693896
3.677246	1.694152
3.677734	1.694112
3.678223	1.694261
3.678711	1.694101
3.679199	1.694095
3.679687	1.694098
3.680176	1.694489
3.680664	1.694430
3.681152	1.694120
3.681641	1.694158
3.682129	1.694178
3.682617	1.694330
3.683105	1.694004
3.683594	1.693944
3.684082	1.694146
3.684570	1.693990
3.685059	1.693891
3.685547	1.694050
3.686035	1.693956
3.686523	1.693937
3.687012	1.694195
3.687500	1.694188
3.687988	1.694233
3.688477	1.694140
3.688965	1.694015
3.689453	1.694119
3.689941	1.694282
3.690430	1.694420
3.690918	1.694072
3.691406	1.694054
3.691895	1.694265
3.692383	1.694418
3.692871	1.694211
3.693359	1.694195
3.693848	1.693918
3.694336	1.694100
3.694824	1.694309
3.695312	1.694193
3.695801	1.693901
3.696289	1.693987
3.696777	1.694348
3.697266	1.694378
3.697754	1.694395
3.698242	1.694170
3.698730	1.694012
3.699219	1.694252
3.699707	1.694380
3.700195	1.694375
3.700684	1.694102
3.701172	1.694242
3.701660	1.694478
3.702148	1.694316
3.702637	1.694297
3.703125	1.694239
3.703613	1.694068
3.704102	1.694514
3.704590	1.694481
3.705078	1.694171
3.705566	1.694283
3.706055	1.694464
3.706543	1.694494
3.707031	1.694459
3.707520	1.694437
3.708008	1.694389
3.708496	1.694471
3.708984	1.694713
3.709473	1.694611
3.709961	1.694402
3.710449	1.694376
3.710937	1.694443
3.711426	1.694867
3.711914	1.694644
3.712402	1.694366
3.712891	1.694496
3.713379	1.694611
3.713867	1.694593
3.714355	1.694631
3.714844	1.694394
3.715332	1.694389
3.715820	1.694424
3.716309	1.694372
3.716797	1.694561
3.717285	1.694321
3.717773	1.694408
3.718262	1.694476
3.718750	1.694491
3.719238	1.694676
3.719727	1.694862
3.720215	1.694672
3.720703	1.694823
3.721191	1.694622
3.721680	1.694575
3.722168	1.694312
3.722656	1.694452
3.723145	1.694536
3.723633	1.694521
3.724121	1.694502
3.724609	1.694338
3.725098	1.694488
3.725586	1.694734
3.726074	1.694616
3.726562	1.694626
3.727051	1.694471
3.727539	1.694560
3.728027	1.694636
3.728516	1.694557
3.729004	1.694263
3.729492	1.694120
3.729980	1.694237
3.730469	1.694639
3.730957	1.694588
3.731445	1.694441
3.731934	1.694464
3.732422	1.694377
3.732910	1.694537
3.733398	1.694718
3.733887	1.694460
3.734375	1.694401
3.734863	1.694368
3.735352	1.694566
3.735840	1.694727
3.736328	1.694615
3.736816	1.694451
3.737305	1.694522
3.737793	1.694635
3.738281	1.694511
3.738770	1.694379
3.739258	1.694378
3.739746	1.694538
3.740234	1.694592
3.740723	1.694700
3.741211	1.694517
3.741699	1.694491
3.742187	1.694652
3.742676	1.694592
3.743164	1.694618
3.743652	1.694676
3.744141	1.694683
3.744629	1.694546
3.745117	1.694997
3.745605	1.694588
3.746094	1.694492
3.746582	1.694643
3.747070	1.694721
3.747559	1.694872
3.748047	1.694752
3.748535	1.694548
3.749023	1.694712
3.749512	1.694804
3.750000	1.694748
3.750488	1.694765
3.750977	1.694817
3.751465	1.694676
3.751953	1.694820
3.752441	1.694698
3.752930	1.694458
3.753418	1.694308
3.753906	1.694483
3.754395	1.694640
3.754883	1.694737
3.755371	1.694666
3.755859	1.694529
3.756348	1.694691
3.756836	1.694773
3.757324	1.694578
3.757812	1.694464
3.758301	1.694581
3.758789	1.694608
3.759277	1.694761
3.759766	1.694522
3.760254	1.694566
3.760742	1.694649
3.761230	1.694859
3.761719	1.694619
3.762207	1.694647
3.762695	1.694564
3.763184	1.694530
3.763672	1.694752
3.764160	1.694745
3.764648	1.694626
3.765137	1.694392
3.765625	1.694244
3.766113	1.694665
3.766602	1.694630
3.767090	1.694277
3.767578	1.694350
3.768066	1.694547
3.768555	1.694817
3.769043	1.694701
3.769531	1.694515
3.770020	1.694347
3.770508	1.694553
3.770996	1.694607
3.771484	1.694726
3.771973	1.694411
3.772461	1.694513
3.772949	1.694746
3.773437	1.694536
3.773926	1.694474
3.774414	1.694687
3.774902	1.694587
3.775391	1.694613
3.775879	1.694836
3.776367	1.694762
3.776855	1.694585
3.777344	1.694483
3.777832	1.694741
3.778320	1.694719
3.778809	1.694652
3.779297	1.694408
3.779785	1.694536
3.780273	1.694871
3.780762	1.694926
3.781250	1.694834
3.781738	1.694547
3.782227	1.694664
3.782715	1.694586
3.783203	1.694800
3.783691	1.694694
3.784180	1.694513
3.784668	1.694458
3.785156	1.694882
3.785645	1.694860
3.786133	1.694841
3.786621	1.694804
3.787109	1.694651
3.787598	1.694768
3.788086	1.694979
3.788574	1.694843
3.789062	1.694297
3.789551	1.694665
3.790039	1.695108
3.790527	1.694847
3.791016	1.694539
3.791504	1.694407
3.791992	1.694619
3.792480	1.694903
3.792969	1.695100
3.793457	1.694509
3.793945	1.694445
3.794434	1.694718
3.794922	1.694806
3.795410	1.694865
3.795898	1.694599
3.796387	1.694619
3.796875	1.694660
3.797363	1.694635
3.797852	1.694848
3.798340	1.694846
3.798828	1.694553
3.799316	1.694599
3.799805	1.695007
3.800293	1.695103
3.800781	1.694785
3.801270	1.694693
3.801758	1.694774
3.802246	1.694915
3.802734	1.694779
3.803223	1.694782
3.803711	1.694522
3.804199	1.694724
3.804687	1.694885
3.805176	1.694648
3.805664	1.694231
3.806152	1.694540
3.806641	1.694590
3.807129	1.694674
3.807617	1.694566
3.808105	1.694442
3.808594	1.694610
3.809082	1.694640
3.809570	1.694628
3.810059	1.694505
3.810547	1.694540
3.811035	1.694746
3.811523	1.694827
3.812012	1.694821
3.812500	1.694591
3.812988	1.694586
3.813477	1.694577
3.813965	1.694786
3.814453	1.694644
3.814941	1.694427
3.815430	1.694323
3.815918	1.694429
3.816406	1.694507
3.816895	1.694574
3.817383	1.694501
3.817871	1.694457
3.818359	1.694428
3.818848	1.694702
3.819336	1.694777
3.819824	1.694476
3.820312	1.694543
3.820801	1.694527
3.821289	1.694568
3.821777	1.694685
3.822266	1.694486
3.822754	1.694452
3.823242	1.694408
3.823730	1.694415
3.824219	1.694460
3.824707	1.694378
3.825195	1.694427
3.825684	1.694303
3.826172	1.694499
3.826660	1.694748
3.827148	1.694322
3.827637	1.694568
3.828125	1.694651
3.828613	1.694767
3.829102	1.694367
3.829590	1.694125
3.830078	1.694521
3.830566	1.694788
3.831055	1.694310
3.831543	1.694339
3.832031	1.694602
3.832520	1.694383
3.833008	1.694549
3.833496	1.694439
3.833984	1.694455
3.834473	1.694013
3.834961	1.694084
3.835449	1.694525
3.835937	1.694436
3.836426	1.694202
3.836914	1.694309
3.837402	1.694273
3.837891	1.694447
3.838379	1.694594
3.838867	1.694489
3.839355	1.694131
3.839844	1.694481
3.840332	1.694698
3.840820	1.694622
3.841309	1.694552
3.841797	1.694482
3.842285	1.694649
3.842773	1.694708
3.843262	1.694609
3.843750	1.694044
3.844238	1.693954
3.844727	1.694373
3.845215	1.694584
3.845703	1.694518
3.846191	1.694238
3.846680	1.694451
3.847168	1.694350
3.847656	1.694606
3.848145	1.694197
3.848633	1.694144
3.849121	1.694491
3.849609	1.694660
3.850098	1.694323
3.850586	1.694408
3.851074	1.694341
3.851562	1.694405
3.852051	1.694730
3.852539	1.694610
3.853027	1.694281
3.853516	1.694270
3.854004	1.694464
3.854492	1.694615
3.854980	1.694456
3.855469	1.694523
3.855957	1.694337
3.856445	1.694432
3.856934	1.694535
3.857422	1.694273
3.857910	1.694132
3.858398	1.694574
3.858887	1.694544
3.859375	1.694206
3.859863	1.694477
3.860352	1.694497
3.860840	1.694399
3.861328	1.694481
3.861816	1.694417
3.862305	1.694381
3.862793	1.694337
3.863281	1.694275
3.863770	1.694127
3.864258	1.694049
3.864746	1.694551
3.865234	1.694193
3.865723	1.694053
3.866211	1.694353
3.866699	1.694509
3.867187	1.694344
3.867676	1.694424
3.868164	1.694359
3.868652	1.694568
3.869141	1.694507
3.869629	1.694543
3.870117	1.694388
3.870605	1.694491
3.871094	1.694524
3.871582	1.694668
3.872070	1.694385
3.872559	1.694429
3.873047	1.694505
3.873535	1.694454
3.874023	1.694615
3.874512	1.694471
3.875000	1.694411
3.875488	1.694390
3.875977	1.694530
3.876465	1.694748
3.876953	1.694599
3.877441	1.694503
3.877930	1.694556
3.878418	1.694497
3.878906	1.694737
3.879395	1.694511
3.879883	1.694563
3.880371	1.694558
3.880859	1.695012
3.881348	1.694702
3.881836	1.695034
3.882324	1.694802
3.882812	1.694979
3.883301	1.695139
3.883789	1.694854
3.884277	1.694748
3.884766	1.694647
3.885254	1.694918
3.885742	1.695033
3.886230	1.694824
3.886719	1.694768
3.887207	1.694644
3.887695	1.694655
3.888184	1.694954
3.888672	1.694641
3.889160	1.694595
3.889648	1.694714
3.890137	1.695117
3.890625	1.694926
3.891113	1.695059
3.891602	1.694835
3.892090	1.694955
3.892578	1.695085
3.893066	1.695023
3.893555	1.694835
3.894043	1.694685
3.894531	1.695106
3.895020	1.695194
3.895508	1.695023
3.895996	1.694729
3.896484	1.694730
3.896973	1.694717
3.897461	1.695104
3.897949	1.695165
3.898437	1.694809
3.898926	1.694825
3.899414	1.695065
3.899902	1.695138
3.900391	1.695123
3.900879	1.694949
3.901367	1.694766
3.901855	1.694727
3.902344	1.694865
3.902832	1.694781
3.903320	1.694508
3.903809	1.694596
3.904297	1.694784
3.904785	1.694613
3.905273	1.694726
3.905762	1.694862
3.906250	1.694691
3.906738	1.694820
3.907227	1.694864
3.907715	1.694896
3.908203	1.694577
3.908691	1.694626
3.909180	1.694951
3.909668	1.694958
3.910156	1.694719
3.910645	1.694586
3.911133	1.694611
3.911621	1.694629
3.912109	1.695137
3.912598	1.694881
3.913086	1.694300
3.913574	1.694484
3.914062	1.694827
3.914551	1.694699
3.915039	1.694427
3.915527	1.694367
3.916016	1.694575
3.916504	1.694548
3.916992	1.694624
3.917480	1.694300
3.917969	1.694118
3.918457	1.694427
3.918945	1.694557
3.919434	1.694584
3.919922	1.694471
3.920410	1.694570
3.920898	1.694547
3.921387	1.694695
3.921875	1.694630
3.922363	1.694431
3.922852	1.694431
3.923340	1.694346
3.923828	1.694574
3.924316	1.694457
3.924805	1.694251
3.925293	1.694283
3.925781	1.694342
3.926270	1.694543
3.926758	1.694582
3.927246	1.694197
3.927734	1.694078
3.928223	1.694420
3.928711	1.694236
3.929199	1.694127
3.929687	1.694153
3.930176	1.694399
3.930664	1.694493
3.931152	1.694273
3.931641	1.694131
3.932129	1.694301
3.932617	1.694210
3.933105	1.694624
3.933594	1.694429
3.934082	1.694260
3.934570	1.694204
3.935059	1.694458
3.935547	1.694471
3.936035	1.694628
3.936523	1.694338
3.937012	1.694297
3.937500	1.694237
3.937988	1.694572
3.938477	1.694434
3.938965	1.694189
3.939453	1.694078
3.939941	1.694371
3.940430	1.694492
3.940918	1.694442
3.941406	1.694239
3.941895	1.694067
3.942383	1.694204
3.942871	1.694178
3.943359	1.694151
3.943848	1.693991
3.944336	1.693852
3.944824	1.694322
3.945312	1.694423
3.945801	1.694239
3.946289	1.694209
3.946777	1.694328
3.947266	1.694420
3.947754	1.694702
3.948242	1.694432
3.948730	1.694389
3.949219	1.694173
3.949707	1.694231
3.950195	1.694687
3.950684	1.694447
3.951172	1.694247
3.951660	1.694223
3.952148	1.694236
3.952637	1.694462
3.953125	1.694710
3.953613	1.694323
3.954102	1.693901
3.954590	1.694348
3.955078	1.694478
3.955566	1.694274
3.956055	1.694254
3.956543	1.694272
3.957031	1.694504
3.957520	1.694303
3.958008	1.694337
3.958496	1.694168
3.958984	1.694297
3.959473	1.694690
3.959961	1.694542
3.960449	1.694386
3.960937	1.694649
3.961426	1.694813
3.961914	1.694820
3.962402	1.694897
3.962891	1.694762
3.963379	1.694694
3.963867	1.694599
3.964355	1.694760
3.964844	1.694930
3.965332	1.694759
3.965820	1.694697
3.966309	1.694797
3.966797	1.694968
3.967285	1.694798
3.967773	1.694858
3.968262	1.694586
3.968750	1.694711
3.969238	1.694898
3.969727	1.694864
3.970215	1.694670
3.970703	1.694749
3.971191	1.694678
3.971680	1.694991
3.972168	1.694800
3.972656	1.694837
3.973145	1.694895
3.973633	1.694959
3.974121	1.695367
3.974609	1.694984
3.975098	1.694948
3.975586	1.694935
3.976074	1.695114
3.976562	1.695256
3.977051	1.695067
3.977539	1.694839
3.978027	1.694999
3.978516	1.695098
3.979004	1.695009
3.979492	1.694830
3.979980	1.694778
3.980469	1.695127
3.980957	1.694979
3.981445	1.695142
3.981934	1.694918
3.982422	1.694868
3.982910	1.694902
3.983398	1.694935
3.983887	1.694648
3.984375	1.694841
3.984863	1.694692
3.985352	1.694719
3.985840	1.694862
3.986328	1.694923
3.986816	1.694829
3.987305	1.694874
3.987793	1.695176
3.988281	1.695011
3.988770	1.695134
3.989258	1.694788
3.989746	1.694895
3.990234	1.695041
3.990723	1.695056
3.991211	1.694923
3.991699	1.694842
3.992187	1.694857
3.992676	1.694929
3.993164	1.695191
3.993652	1.694879
3.994141	1.695039
3.994629	1.695028
3.995117	1.694983
3.995605	1.694973
3.996094	1.694921
3.996582	1.694813
3.997070	1.694855
3.997559	1.694885
3.998047	1.695020
3.998535	1.694583
3.999023	1.694731
3.999512	1.694740
4.000000	1.694917
4.000488	1.694751
4.000977	1.694743
4.001465	1.694607
4.001953	1.695004
4.002441	1.694984
4.002930	1.694893
4.003418	1.694752
4.003906	1.694647
4.004395	1.694790
4.004883	1.694746
4.005371	1.694738
4.005859	1.694727
4.006348	1.694688
4.006836	1.694736
4.007324	1.694925
4.007812	1.694694
4.008301	1.694641
4.008789	1.694749
4.009277	1.694881
4.009766	1.694813
4.010254	1.694857
4.010742	1.694815
4.011230	1.694682
4.011719	1.694909
4.012207	1.694695
4.012695	1.694599
4.013184	1.694350
4.013672	1.694735
4.014160	1.694636
4.014648	1.694693
4.015137	1.694592
4.015625	1.694738
4.016113	1.694448
4.016602	1.694987
4.017090	1.694908
4.017578	1.694785
4.018066	1.694726
4.018555	1.695018
4.019043	1.694856
4.019531	1.694402
4.020020	1.694452
4.020508	1.694712
4.020996	1.694587
4.021484	1.694372
4.021973	1.694497
4.022461	1.694255
4.022949	1.694430
4.023437	1.694897
4.023926	1.694364
4.024414	1.694290
4.024902	1.694445
4.025391	1.694334
4.025879	1.694380
4.026367	1.694480
4.026855	1.694350
4.027344	1.694333
4.027832	1.694431
4.028320	1.694531
4.028809	1.694190
4.029297	1.694366
4.029785	1.694289
4.030273	1.694417
4.030762	1.694443
4.031250	1.694552
4.031738	1.694343
4.032227	1.694373
4.032715	1.694305
4.033203	1.694409
4.033691	1.694241
4.034180	1.694221
4.034668	1.694041
4.035156	1.694115
4.035645	1.694169
4.036133	1.694270
4.036621	1.693970
4.037109	1.694054
4.037598	1.694059
4.038086	1.694265
4.038574	1.694079
4.039062	1.693990
4.039551	1.693805
4.040039	1.694089
4.040527	1.694332
4.041016	1.694218
4.041504	1.694107
4.041992	1.694126
4.042480	1.694255
4.042969	1.694239
4.043457	1.694112
4.043945	1.694240
4.044434	1.694222
4.044922	1.694297
4.045410	1.694354
4.045898	1.694110
4.046387	1.694091
4.046875	1.694245
4.047363	1.694144
4.047852	1.694056
4.048340	1.694084
4.048828	1.693920
4.049316	1.693988
4.049805	1.694157
4.050293	1.694162
4.050781	1.694029
4.051270	1.694001
4.051758	1.693922
4.052246	1.694339
4.052734	1.694208
4.053223	1.694247
4.053711	1.693998
4.054199	1.694085
4.054687	1.694289
4.055176	1.694316
4.055664	1.694341
4.056152	1.694383
4.056641	1.694259
4.057129	1.694554
4.057617	1.694357
4.058105	1.694485
4.058594	1.694316
4.059082	1.694413
4.059570	1.694314
4.060059	1.694565
4.060547	1.694559
4.061035	1.694274
4.061523	1.694485
4.062012	1.694482
4.062500	1.694615
4.062988	1.694056
4.063477	1.694152
4.063965	1.694355
4.064453	1.694389
4.064941	1.694610
4.065430	1.694389
4.065918	1.694162
4.066406	1.694328
4.066895	1.694772
4.067383	1.694507
4.067871	1.694408
4.068359	1.694490
4.068848	1.694849
4.069336	1.694353
4.069824	1.694254
4.070312	1.694530
4.070801	1.694500
4.071289	1.694446
4.071777	1.694588
4.072266	1.694541
4.072754	1.694374
4.073242	1.694513
4.073730	1.694472
4.074219	1.694607
4.074707	1.694413
4.075195	1.694180
4.075684	1.694325
4.076172	1.694334
4.076660	1.694494
4.077148	1.694488
4.077637	1.694422
4.078125	1.694521
4.078613	1.694486
4.079102	1.694532
4.079590	1.694491
4.080078	1.694339
4.080566	1.694308
4.081055	1.694425
4.081543	1.694389
4.082031	1.694297
4.082520	1.694312
4.083008	1.694449
4.083496	1.694395
4.083984	1.694333
4.084473	1.694279
4.084961	1.694378
4.085449	1.694596
4.085937	1.694444
4.086426	1.694244
4.086914	1.694406
4.087402	1.694239
4.087891	1.694239
4.088379	1.694384
4.088867	1.694148
4.089355	1.694135
4.089844	1.694409
4.090332	1.694476
4.090820	1.694327
4.091309	1.694083
4.091797	1.693894
4.092285	1.694050
4.092773	1.694256
4.093262	1.694131
4.093750	1.694148
4.094238	1.693787
4.094727	1.693802
4.095215	1.694380
4.095703	1.694316
4.096191	1.694112
4.096680	1.694036
4.097168	1.693822
4.097656	1.694013
4.098145	1.694021
4.098633	1.693998
4.099121	1.693940
4.099609	1.693937
4.100098	1.694161
4.100586	1.694267
4.101074	1.694120
4.101562	1.693932
4.102051	1.693949
4.102539	1.694319
4.103027	1.694258
4.103516	1.693797
4.104004	1.693848
4.104492	1.693631
4.104980	1.693815
4.105469	1.693614
4.105957	1.693648
4.106445	1.693610
4.106934	1.693771
4.107422	1.693813
4.107910	1.693711
4.108398	1.693581
4.108887	1.693675
4.109375	1.693739
4.109863	1.693992
4.110352	1.693930
4.110840	1.693758
4.111328	1.693808
4.111816	1.693797
4.112305	1.693848
4.112793	1.693602
4.113281	1.693565
4.113770	1.693735
4.114258	1.693895
4.114746	1.693969
4.115234	1.693718
4.115723	1.693440
4.116211	1.693741
4.116699	1.693749
4.117187	1.693736
4.117676	1.693615
4.118164	1.693438
4.118652	1.693628
4.119141	1.693622
4.119629	1.693824
4.120117	1.693725
4.120605	1.693545
4.121094	1.693804
4.121582	1.694015
4.122070	1.693965
4.122559	1.693745
4.123047	1.693388
4.123535	1.693924
4.124023	1.694013
4.124512	1.693834
4.125000	1.693680
4.125488	1.693742
4.125977	1.693815
4.126465	1.693578
4.126953	1.693776
4.127441	1.693754
4.127930	1.693557
4.128418	1.693575
4.128906	1.693699
4.129395	1.693543
4.129883	1.693731
4.130371	1.693949
4.130859	1.693560
4.131348	1.693840
4.131836	1.693813
4.132324	1.693677
4.132812	1.693821
4.133301	1.693786
4.133789	1.693959
4.134277	1.693950
4.134766	1.693752
4.135254	1.693955
4.135742	1.693860
4.136230	1.693925
4.136719	1.693991
4.137207	1.693862
4.137695	1.693807
4.138184	1.694141
4.138672	1.694044
4.139160	1.694067
4.139648	1.693920
4.140137	1.694071
4.140625	1.694134
4.141113	1.694168
4.141602	1.693941
4.142090	1.693910
4.142578	1.693893
4.143066	1.694222
4.143555	1.693915
4.144043	1.694038
4.144531	1.694035
4.145020	1.694120
4.145508	1.694189
4.145996	1.694178
4.146484	1.694025
4.146973	1.694139
4.147461	1.694129
4.147949	1.694398
4.148437	1.694391
4.148926	1.694229
4.149414	1.694165
4.149902	1.694278
4.150391	1.694538
4.150879	1.694451
4.151367	1.694311
4.151855	1.694145
4.152344	1.694368
4.152832	1.694568
4.153320	1.694398
4.153809	1.694302
4.154297	1.694270
4.154785	1.694369
4.155273	1.694334
4.155762	1.694355
4.156250	1.694269
4.156738	1.694200
4.157227	1.694348
4.157715	1.694274
4.158203	1.694389
4.158691	1.694209
4.159180	1.694347
4.159668	1.694280
4.160156	1.694680
4.160645	1.694431
4.161133	1.694258
4.161621	1.694145
4.162109	1.694534
4.162598	1.694491
4.163086	1.694594
4.163574	1.694173
4.164062	1.694382
4.164551	1.694224
4.165039	1.694400
4.165527	1.694422
4.166016	1.694196
4.166504	1.694197
4.166992	1.694384
4.167480	1.694378
4.167969	1.694316
4.168457	1.693978
4.168945	1.694219
4.169434	1.694477
4.169922	1.694270
4.170410	1.694220
4.170898	1.694173
4.171387	1.694249
4.171875	1.694464
4.172363	1.694461
4.172852	1.694154
4.173340	1.694065
4.173828	1.694010
4.174316	1.694142
4.174805	1.694053
4.175293	1.694049
4.175781	1.694159
4.176270	1.694134
4.176758	1.694237
4.177246	1.694087
4.177734	1.693946
4.178223	1.693813
4.178711	1.693941
4.179199	1.694421
4.179687	1.694258
4.180176	1.693831
4.180664	1.694025
4.181152	1.694110
4.181641	1.694196
4.182129	1.694131
4.182617	1.693740
4.183105	1.693974
4.183594	1.693760
4.184082	1.693763
4.184570	1.693977
4.185059	1.694017
4.185547	1.693584
4.186035	1.693865
4.186523	1.694104
4.187012	1.693975
4.187500	1.693796
4.187988	1.693734
4.188477	1.693735
4.188965	1.693962
4.189453	1.694004
4.189941	1.693669
4.190430	1.693815
4.190918	1.694110
4.191406	1.694147
4.191895	1.693921
4.192383	1.693930
4.192871	1.693915
4.193359	1.693999
4.193848	1.693982
4.194336	1.693863
4.194824	1.693554
4.195312	1.693934
4.195801	1.694072
4.196289	1.693898
4.196777	1.693744
4.197266	1.693741
4.197754	1.693746
4.198242	1.693981
4.198730	1.694067
4.199219	1.693684
4.199707	1.693655
4.200195	1.693904
4.200684	1.694021
4.201172	1.693853
4.201660	1.693937
4.202148	1.694052
4.202637	1.694189
4.203125	1.694254
4.203613	1.694131
4.204102	1.694063
4.204590	1.694045
4.205078	1.694259
4.205566	1.694455
4.206055	1.694264
4.206543	1.694048
4.207031	1.694137
4.207520	1.694040
4.208008	1.694145
4.208496	1.694350
4.208984	1.693877
4.209473	1.693628
4.209961	1.694170
4.210449	1.694305
4.210937	1.693968
4.211426	1.693906
4.211914	1.694017
4.212402	1.694333
4.212891	1.694089
4.213379	1.694025
4.213867	1.693774
4.214355	1.694044
4.214844	1.694158
4.215332	1.694123
4.215820	1.693807
4.216309	1.693986
4.216797	1.694063
4.217285	1.694118
4.217773	1.694103
4.218262	1.694176
4.218750	1.694027
4.219238	1.694367
4.219727	1.694364
4.220215	1.694508
4.220703	1.694319
4.221191	1.694142
4.221680	1.694296
4.222168	1.694338
4.222656	1.694360
4.223145	1.694278
4.223633	1.693978
4.224121	1.694137
4.224609	1.694247
4.225098	1.694103
4.225586	1.694086
4.226074	1.694092
4.226562	1.694287
4.227051	1.694289
4.227539	1.694369
4.228027	1.694190
4.228516	1.694146
4.229004	1.694342
4.229492	1.694328
4.229980	1.694340
4.230469	1.694203
4.230957	1.694431
4.231445	1.694715
4.231934	1.694321
4.232422	1.694342
4.232910	1.694508
4.233398	1.694541
4.233887	1.694722
4.234375	1.694717
4.234863	1.694436
4.235352	1.694506
4.235840	1.694646
4.236328	1.694521
4.236816	1.694154
4.237305	1.694475
4.237793	1.694480
4.238281	1.694380
4.238770	1.694425
4.239258	1.694424
4.239746	1.694360
4.240234	1.694668
4.240723	1.694622
4.241211	1.694464
4.241699	1.694507
4.242187	1.694459
4.242676	1.694417
4.243164	1.694592
4.243652	1.694533
4.244141	1.694517
4.244629	1.694385
4.245117	1.694497
4.245605	1.694732
4.246094	1.694863
4.246582	1.694722
4.247070	1.694591
4.247559	1.694478
4.248047	1.694668
4.248535	1.694746
4.249023	1.694729
4.249512	1.694322
4.250000	1.694396
4.250488	1.694754
4.250977	1.694513
4.251465	1.694575
4.251953	1.694423
4.252441	1.694323
4.252930	1.694838
4.253418	1.694946
4.253906	1.694467
4.254395	1.694493
4.254883	1.694342
4.255371	1.694461
4.255859	1.694580
4.256348	1.694491
4.256836	1.694265
4.257324	1.694366
4.257812	1.694665
4.258301	1.694536
4.258789	1.694442
4.259277	1.694270
4.259766	1.694365
4.260254	1.694750
4.260742	1.694798
4.261230	1.694438
4.261719	1.694353
4.262207	1.694412
4.262695	1.694470
4.263184	1.694319
4.263672	1.694189
4.264160	1.694126
4.264648	1.694275
4.265137	1.694414
4.265625	1.694331
4.266113	1.694129
4.266602	1.694129
4.267090	1.694296
4.267578	1.694428
4.268066	1.694295
4.268555	1.694169
4.269043	1.694149
4.269531	1.694292
4.270020	1.694323
4.270508	1.694440
4.270996	1.694226
4.271484	1.693985
4.271973	1.694370
4.272461	1.694337
4.272949	1.694149
4.273437	1.694167
4.273926	1.693998
4.274414	1.694342
4.274902	1.694271
4.275391	1.694322
4.275879	1.693765
4.276367	1.693813
4.276855	1.694099
4.277344	1.694193
4.277832	1.693952
4.278320	1.693850
4.278809	1.693968
4.279297	1.694042
4.279785	1.694262
4.280273	1.694085
4.280762	1.694002
4.281250	1.694022
4.281738	1.694170
4.282227	1.694034
4.282715	1.693996
4.283203	1.693856
4.283691	1.693942
4.284180	1.693968
4.284668	1.694048
4.285156	1.694208
4.285645	1.694021
4.286133	1.694031
4.286621	1.694183
4.287109	1.694176
4.287598	1.694079
4.288086	1.694065
4.288574	1.693974
4.289062	1.694058
4.289551	1.694123
4.290039	1.693865
4.290527	1.693784
4.291016	1.693770
4.291504	1.694209
4.291992	1.693918
4.292480	1.693793
4.292969	1.693797
4.293457	1.693915
4.293945	1.694054
4.294434	1.694225
4.294922	1.693651
4.295410	1.693839
4.295898	1.693938
4.296387	1.694091
4.296875	1.693932
4.297363	1.693835
4.297852	1.694081
4.298340	1.694031
4.298828	1.694278
4.299316	1.693968
4.299805	1.693971
4.300293	1.694114
4.300781	1.694179
4.301270	1.694060
4.301758	1.694101
4.302246	1.693852
4.302734	1.693871
4.303223	1.693964
4.303711	1.693895
4.304199	1.693772
4.304687	1.693864
4.305176	1.694329
4.305664	1.694089
4.306152	1.694347
4.306641	1.694147
4.307129	1.694116
4.307617	1.694160
4.308105	1.694336
4.308594	1.694122
4.309082	1.694182
4.309570	1.693992
4.310059	1.694317
4.310547	1.694159
4.311035	1.694431
4.311523	1.694190
4.312012	1.694208
4.312500	1.694284
4.312988	1.694413
4.313477	1.694242
4.313965	1.694363
4.314453	1.694306
4.314941	1.694430
4.315430	1.694707
4.315918	1.694444
4.316406	1.694339
4.316895	1.694330
4.317383	1.694449
4.317871	1.694571
4.318359	1.694441
4.318848	1.694303
4.319336	1.694446
4.319824	1.694759
4.320312	1.694768
4.320801	1.694673
4.321289	1.694532
4.321777	1.694596
4.322266	1.694682
4.322754	1.694730
4.323242	1.694535
4.323730	1.694552
4.324219	1.694539
4.324707	1.694738
4.325195	1.694533
4.325684	1.694763
4.326172	1.694582
4.326660	1.694721
4.327148	1.694790
4.327637	1.694977
4.328125	1.694663
4.328613	1.694806
4.329102	1.694904
4.329590	1.694914
4.330078	1.695041
4.330566	1.694887
4.331055	1.694799
4.331543	1.694912
4.332031	1.694978
4.332520	1.694862
4.333008	1.694862
4.333496	1.694655
4.333984	1.695110
4.334473	1.695075
4.334961	1.694884
4.335449	1.694986
4.335937	1.694840
4.336426	1.694960
4.336914	1.694921
4.337402	1.695011
4.337891	1.694958
4.338379	1.695033
4.338867	1.695047
4.339355	1.695076
4.339844	1.694784
4.340332	1.695117
4.340820	1.695048
4.341309	1.695051
4.341797	1.695059
4.342285	1.694869
4.342773	1.694858
4.343262	1.694838
4.343750	1.695001
4.344238	1.694722
4.344727	1.694598
4.345215	1.694448
4.345703	1.694822
4.346191	1.694755
4.346680	1.694687
4.347168	1.694474
4.347656	1.694541
4.348145	1.694474
4.348633	1.694887
4.349121	1.694785
4.349609	1.694541
4.350098	1.694599
4.350586	1.694914
4.351074	1.694773
4.351562	1.694278
4.352051	1.694360
4.352539	1.694652
4.353027	1.694791
4.353516	1.694329
4.354004	1.694588
4.354492	1.694415
4.354980	1.694492
4.355469	1.694741
4.355957	1.694430
4.356445	1.694365
4.356934	1.694314
4.357422	1.694347
4.357910	1.694284
4.358398	1.694369
4.358887	1.694324
4.359375	1.694185
4.359863	1.694223
4.360352	1.694456
4.360840	1.694433
4.361328	1.694086
4.361816	1.693901
4.362305	1.694095
4.362793	1.694171
4.363281	1.694232
4.363770	1.694063
4.364258	1.693879
4.364746	1.694099
4.365234	1.694271
4.365723	1.694278
4.366211	1.693880
4.366699	1.693918
4.367187	1.694254
4.367676	1.694161
4.368164	1.693960
4.368652	1.693951
4.369141	1.693943
4.369629	1.694132
4.370117	1.694162
4.370605	1.693934
4.371094	1.693793
4.371582	1.693819
4.372070	1.693921
4.372559	1.694144
4.373047	1.693869
4.373535	1.693630
4.374023	1.693528
4.374512	1.693652
4.375000	1.694045
4.375488	1.693954
4.375977	1.693737
4.376465	1.693862
4.376953	1.693940
4.377441	1.693984
4.377930	1.693885
4.378418	1.693832
4.378906	1.694099
4.379395	1.694055
4.379883	1.694124
4.380371	1.694010
4.380859	1.693905
4.381348	1.693867
4.381836	1.693963
4.382324	1.694001
4.382812	1.694090
4.383301	1.693777
4.383789	1.693934
4.384277	1.693766
4.384766	1.693780
4.385254	1.693973
4.385742	1.693816
4.386230	1.693646
4.386719	1.693915
4.387207	1.693985
4.387695	1.693808
4.388184	1.694085
4.388672	1.694017
4.389160	1.694038
4.389648	1.693929
4.390137	1.694041
4.390625	1.694002
4.391113	1.694006
4.391602	1.694253
4.392090	1.694254
4.392578	1.693820
4.393066	1.693923
4.393555	1.694297
4.394043	1.694192
4.394531	1.693825
4.395020	1.694061
4.395508	1.694100
4.395996	1.694132
4.396484	1.694274
4.396973	1.693946
4.397461	1.693976
4.397949	1.693895
4.398437	1.694270
4.398926	1.693857
4.399414	1.693715
4.399902	1.693909
4.400391	1.694031
4.400879	1.693922
4.401367	1.694062
4.401855	1.694080
4.402344	1.693844
4.402832	1.694150
4.403320	1.693985
4.403809	1.694052
4.404297	1.694006
4.404785	1.694046
4.405273	1.694232
4.405762	1.694361
4.406250	1.694129
4.406738	1.694168
4.407227	1.694089
4.407715	1.694161
4.408203	1.694378
4.408691	1.694280
4.409180	1.694003
4.409668	1.693990
4.410156	1.694215
4.410645	1.694421
4.411133	1.694365
4.411621	1.694173
4.412109	1.693988
4.412598	1.694310
4.413086	1.694367
4.413574	1.694373
4.414062	1.694114
4.414551	1.694036
4.415039	1.694282
4.415527	1.694294
4.416016	1.694280
4.416504	1.694112
4.416992	1.694084
4.417480	1.694458
4.417969	1.694418
4.418457	1.694228
4.418945	1.694539
4.419434	1.694203
4.419922	1.694687
4.420410	1.694673
4.420898	1.694558
4.421387	1.694253
4.421875	1.694466
4.422363	1.694418
4.422852	1.694643
4.423340	1.694262
4.423828	1.694269
4.424316	1.694153
4.424805	1.694372
4.425293	1.694621
4.425781	1.694438
4.426270	1.694029
4.426758	1.694449
4.427246	1.694484
4.427734	1.694449
4.428223	1.694460
4.428711	1.694172
4.429199	1.694334
4.429687	1.694536
4.430176	1.694456
4.430664	1.694329
4.431152	1.694214
4.431641	1.694648
4.432129	1.694635
4.432617	1.694598
4.433105	1.694406
4.433594	1.693998
4.434082	1.694334
4.434570	1.694843
4.435059	1.694386
4.435547	1.694029
4.436035	1.694256
4.436523	1.694380
4.437012	1.694353
4.437500	1.694352
4.437988	1.694127
4.438477	1.694192
4.438965	1.694192
4.439453	1.694279
4.439941	1.694394
4.440430	1.694223
4.440918	1.694269
4.441406	1.694250
4.441895	1.693856
4.442383	1.693900
4.442871	1.693788
4.443359	1.694006
4.443848	1.694141
4.444336	1.694210
4.444824	1.694162
4.445312	1.694063
4.445801	1.694085
4.446289	1.694283
4.446777	1.694276
4.447266	1.694306
4.447754	1.694147
4.448242	1.693988
4.448730	1.694209
4.449219	1.694493
4.449707	1.694168
4.450195	1.694223
4.450684	1.694201
4.451172	1.694046
4.451660	1.694397
4.452148	1.694118
4.452637	1.694114
4.453125	1.694250
4.453613	1.694234
4.454102	1.694247
4.454590	1.694060
4.455078	1.693972
4.455566	1.694186
4.456055	1.694135
4.456543	1.694301
4.457031	1.693984
4.457520	1.694035
4.458008	1.694223
4.458496	1.694234
4.458984	1.694172
4.459473	1.694101
4.459961	1.694253
4.460449	1.694478
4.460937	1.694509
4.461426	1.694447
4.461914	1.694324
4.462402	1.694225
4.462891	1.694390
4.463379	1.694304
4.463867	1.694248
4.464355	1.694158
4.464844	1.694166
4.465332	1.694298
4.465820	1.694426
4.466309	1.694097
4.466797	1.694057
4.467285	1.694220
4.467773	1.694460
4.468262	1.694153
4.468750	1.694327
4.469238	1.694306
4.469727	1.694196
4.470215	1.694328
4.470703	1.694530
4.471191	1.694493
4.471680	1.694325
4.472168	1.694428
4.472656	1.694349
4.473145	1.694436
4.473633	1.694605
4.474121	1.694502
4.474609	1.693995
4.475098	1.694531
4.475586	1.694516
4.476074	1.694416
4.476562	1.694352
4.477051	1.694303
4.477539	1.694514
4.478027	1.694533
4.478516	1.694372
4.479004	1.694062
4.479492	1.694108
4.479980	1.694422
4.480469	1.694336
4.480957	1.694101
4.481445	1.694047
4.481934	1.694377
4.482422	1.694251
4.482910	1.694398
4.483398	1.694042
4.483887	1.694026
4.484375	1.694198
4.484863	1.694707
4.485352	1.694327
4.485840	1.694196
4.486328	1.694180
4.486816	1.694214
4.487305	1.694456
4.487793	1.694429
4.488281	1.694026
4.488770	1.694086
4.489258	1.694472
4.489746	1.694301
4.490234	1.694193
4.490723	1.694087
4.491211	1.693995
4.491699	1.694238
4.492187	1.694399
4.492676	1.694192
4.493164	1.694100
4.493652	1.694001
4.494141	1.694183
4.494629	1.694165
4.495117	1.694118
4.495605	1.693838
4.496094	1.693875
4.496582	1.694164
4.497070	1.694107
4.497559	1.693951
4.498047	1.693894
4.498535	1.694215
4.499023	1.694143
4.499512	1.694201
4.500000	1.694143
4.500488	1.694203
4.500977	1.694068
4.501465	1.694269
4.501953	1.694286
4.502441	1.694042
4.502930	1.694056
4.503418	1.694132
4.503906	1.694137
4.504395	1.694126
4.504883	1.694175
4.505371	1.693925
4.505859	1.694370
4.506348	1.694345
4.506836	1.694151
4.507324	1.693973
4.507812	1.693915
4.508301	1.694186
4.508789	1.694135
4.509277	1.693948
4.509766	1.693819
4.510254	1.693704
4.510742	1.694130
4.511230	1.694535
4.511719	1.694054
4.512207	1.693700
4.512695	1.694194
4.513184	1.694318
4.513672	1.694304
4.514160	1.694242
4.514648	1.694067
4.515137	1.694124
4.515625	1.694362
4.516113	1.694172
4.516602	1.693962
4.517090	1.693905
4.517578	1.694206
4.518066	1.694225
4.518555	1.694199
4.519043	1.693885
4.519531	1.693866
4.520020	1.694287
4.520508	1.694322
4.520996	1.694115
4.521484	1.694006
4.521973	1.694063
4.522461	1.694057
4.522949	1.694461
4.523437	1.694124
4.523926	1.694083
4.524414	1.694070
4.524902	1.694117
4.525391	1.694217
4.525879	1.694093
4.526367	1.694207
4.526855	1.694240
4.527344	1.694065
4.527832	1.694472
4.528320	1.693961
4.528809	1.693943
4.529297	1.694082
4.529785	1.694197
4.530273	1.694217
4.530762	1.694291
4.531250	1.693986
4.531738	1.694218
4.532227	1.694450
4.532715	1.694286
4.533203	1.694271
4.533691	1.693996
4.534180	1.694083
4.534668	1.694148
4.535156	1.694228
4.535645	1.694129
4.536133	1.694027
4.536621	1.694007
4.537109	1.694334
4.537598	1.694023
4.538086	1.694229
4.538574	1.694399
4.539062	1.694232
4.539551	1.694296
4.540039	1.694655
4.540527	1.694428
4.541016	1.694441
4.541504	1.694503
4.541992	1.694463
4.542480	1.694459
4.542969	1.694490
4.543457	1.694194
4.543945	1.693923
4.544434	1.694190
4.544922	1.694450
4.545410	1.694110
4.545898	1.694096
4.546387	1.694156
4.546875	1.694306
4.547363	1.694239
4.547852	1.694403
4.548340	1.693869
4.548828	1.694097
4.549316	1.694545
4.549805	1.694485
4.550293	1.694239
4.550781	1.694194
4.551270	1.694223
4.551758	1.694608
4.552246	1.694294
4.552734	1.694414
4.553223	1.694279
4.553711	1.694493
4.554199	1.694733
4.554687	1.694466
4.555176	1.694182
4.555664	1.694084
4.556152	1.694486
4.556641	1.694617
4.557129	1.694443
4.557617	1.694187
4.558105	1.694150
4.558594	1.694400
4.559082	1.694377
4.559570	1.694311
4.560059	1.694062
4.560547	1.694431
4.561035	1.694150
4.561523	1.694171
4.562012	1.694217
4.562500	1.694057
4.562988	1.693896
4.563477	1.694101
4.563965	1.694026
4.564453	1.693920
4.564941	1.693912
4.565430	1.694002
4.565918	1.694213
4.566406	1.694300
4.566895	1.694308
4.567383	1.693869
4.567871	1.693973
4.568359	1.694397
4.568848	1.694125
4.569336	1.693826
4.569824	1.693701
4.570312	1.694147
4.570801	1.693957
4.571289	1.694378
4.571777	1.693971
4.572266	1.693543
4.572754	1.693867
4.573242	1.694037
4.573730	1.693866
4.574219	1.693694
4.574707	1.693751
4.575195	1.693998
4.575684	1.693932
4.576172	1.693749
4.576660	1.693598
4.577148	1.693713
4.577637	1.693809
4.578125	1.693861
4.578613	1.693670
4.579102	1.693675
4.579590	1.693887
4.580078	1.693946
4.580566	1.693876
4.581055	1.693862
4.581543	1.693937
4.582031	1.693632
4.582520	1.693844
4.583008	1.693907
4.583496	1.693778
4.583984	1.693321
4.584473	1.693559
4.584961	1.694014
4.585449	1.693769
4.585937	1.693578
4.586426	1.693589
4.586914	1.693935
4.587402	1.693736
4.587891	1.693536
4.588379	1.693716
4.588867	1.693646
4.589355	1.693580
4.589844	1.693619
4.590332	1.693718
4.590820	1.693455
4.591309	1.693794
4.591797	1.693766
4.592285	1.693561
4.592773	1.693705
4.593262	1.693617
4.593750	1.693511
4.594238	1.693751
4.594727	1.693770
4.595215	1.693694
4.595703	1.693542
4.596191	1.693461
4.596680	1.693741
4.597168	1.693699
4.597656	1.693525
4.598145	1.693532
4.598633	1.693408
4.599121	1.693721
4.599609	1.693747
4.600098	1.693402
4.600586	1.693550
4.601074	1.693402
4.601562	1.693696
4.602051	1.693582
4.602539	1.693440
4.603027	1.693708
4.603516	1.693406
4.604004	1.693879
4.604492	1.693663
4.604980	1.693564
4.605469	1.693550
4.605957	1.693545
4.606445	1.693682
4.606934	1.693804
4.607422	1.693669
4.607910	1.693511
4.608398	1.693610
4.608887	1.693704
4.609375	1.693743
4.609863	1.693594
4.610352	1.693665
4.610840	1.693595
4.611328	1.693534
4.611816	1.693674
4.612305	1.693536
4.612793	1.693372
4.613281	1.693796
4.613770	1.693541
4.614258	1.693415
4.614746	1.693554
4.615234	1.693512
4.615723	1.693551
4.616211	1.693756
4.616699	1.693522
4.617187	1.693521
4.617676	1.693433
4.618164	1.693724
4.618652	1.693531
4.619141	1.693539
4.619629	1.693552
4.620117	1.693625
4.620605	1.693648
4.621094	1.693732
4.621582	1.693709
4.622070	1.693650
4.622559	1.693710
4.623047	1.693821
4.623535	1.693746
4.624023	1.693601
4.624512	1.693553
4.625000	1.693707
4.625488	1.693779
4.625977	1.693782
4.626465	1.693589
4.626953	1.693644
4.627441	1.693509
4.627930	1.693710
4.628418	1.693712
4.628906	1.693547
4.629395	1.693342
4.629883	1.693707
4.630371	1.693677
4.630859	1.693495
4.631348	1.693298
4.631836	1.693419
4.632324	1.693768
4.632812	1.693920
4.633301	1.693858
4.633789	1.693603
4.634277	1.693709
4.634766	1.693766
4.635254	1.694027
4.635742	1.693667
4.636230	1.693383
4.636719	1.693804
4.637207	1.693753
4.637695	1.693800
4.638184	1.693613
4.638672	1.693608
4.639160	1.693517
4.639648	1.693899
4.640137	1.693661
4.640625	1.693746
4.641113	1.693358
4.641602	1.693598
4.642090	1.693739
4.642578	1.693756
4.643066	1.693542
4.643555	1.693645
4.644043	1.693656
4.644531	1.693805
4.645020	1.694160
4.645508	1.693885
4.645996	1.693883
4.646484	1.693937
4.646973	1.694100
4.647461	1.693968
4.647949	1.693942
4.648437	1.693934
4.648926	1.693901
4.649414	1.693933
4.649902	1.694200
4.650391	1.693951
4.650879	1.693841
4.651367	1.694211
4.651855	1.694297
4.652344	1.693976
4.652832	1.693990
4.653320	1.693912
4.653809	1.693993
4.654297	1.694150
4.654785	1.693980
4.655273	1.694066
4.655762	1.693584
4.656250	1.693720
4.656738	1.694081
4.657227	1.694145
4.657715	1.693432
4.658203	1.693805
4.658691	1.694042
4.659180	1.694074
4.659668	1.694064
4.660156	1.693959
4.660645	1.693827
4.661133	1.693921
4.661621	1.694066
4.662109	1.693898
4.662598	1.693680
4.663086	1.693800
4.663574	1.693897
4.664062	1.693818
4.664551	1.693716
4.665039	1.693858
4.665527	1.693644
4.666016	1.693690
4.666504	1.693864
4.666992	1.693733
4.667480	1.693575
4.667969	1.693473
4.668457	1.693565
4.668945	1.693766
4.669434	1.693333
4.669922	1.693440
4.670410	1.693688
4.670898	1.693761
4.671387	1.693922
4.671875	1.693730
4.672363	1.693459
4.672852	1.693605
4.673340	1.693736
4.673828	1.693534
4.674316	1.693401
4.674805	1.693544
4.675293	1.693693
4.675781	1.693725
4.676270	1.693583
4.676758	1.693271
4.677246	1.693416
4.677734	1.693483
4.678223	1.693645
4.678711	1.693350
4.679199	1.693518
4.679687	1.693404
4.680176	1.693517
4.680664	1.693592
4.681152	1.693315
4.681641	1.693185
4.682129	1.693310
4.682617	1.693193
4.683105	1.693477
4.683594	1.693110
4.684082	1.693234
4.684570	1.693147
4.685059	1.693412
4.685547	1.693303
4.686035	1.693426
4.686523	1.693284
4.687012	1.693254
4.687500	1.693405
4.687988	1.693470
4.688477	1.693321
4.688965	1.693214
4.689453	1.693475
4.689941	1.693635
4.690430	1.693409
4.690918	1.693417
4.691406	1.693431
4.691895	1.693420
4.692383	1.693649
4.692871	1.693441
4.693359	1.693266
4.693848	1.693218
4.694336	1.693164
4.694824	1.693290
4.695312	1.693068
4.695801	1.693353
4.696289	1.693190
4.696777	1.693127
4.697266	1.693221
4.697754	1.693397
4.698242	1.693137
4.698730	1.693245
4.699219	1.693154
4.699707	1.693285
4.700195	1.693625
4.700684	1.693656
4.701172	1.693310
4.701660	1.693500
4.702148	1.693512
4.702637	1.693414
4.703125	1.693752
4.703613	1.693345
4.704102	1.693566
4.704590	1.693649
4.705078	1.693571
4.705566	1.693694
4.706055	1.693342
4.706543	1.693601
4.707031	1.693916
4.707520	1.693701
4.708008	1.693422
4.708496	1.693461
4.708984	1.693595
4.709473	1.693683
4.709961	1.693730
4.710449	1.693606
4.710937	1.693702
4.711426	1.693687
4.711914	1.693708
4.712402	1.693708
4.712891	1.693627
4.713379	1.693783
4.713867	1.693847
4.714355	1.694013
4.714844	1.693869
4.715332	1.693792
4.715820	1.693805
4.716309	1.693879
4.716797	1.694114
4.717285	1.694032
4.717773	1.693877
4.718262	1.693947
4.718750	1.694044
4.719238	1.694134
4.719727	1.694131
4.720215	1.694125
4.720703	1.694264
4.721191	1.694098
4.721680	1.694258
4.722168	1.693943
4.722656	1.694012
4.723145	1.694187
4.723633	1.694205
4.724121	1.694275
4.724609	1.694042
4.725098	1.694145
4.725586	1.694229
4.726074	1.694433
4.726562	1.694365
4.727051	1.694289
4.727539	1.694314
4.728027	1.694252
4.728516	1.694405
4.729004	1.694465
4.729492	1.694400
4.729980	1.694577
4.730469	1.694552
4.730957	1.694644
4.731445	1.694574
4.731934	1.694310
4.732422	1.694254
4.732910	1.694599
4.733398	1.694660
4.733887	1.694619
4.734375	1.694304
4.734863	1.694292
4.735352	1.694483
4.735840	1.694643
4.736328	1.694572
4.736816	1.694280
4.737305	1.694314
4.737793	1.694587
4.738281	1.694608
4.738770	1.694273
4.739258	1.694244
4.739746	1.694381
4.740234	1.694577
4.740723	1.694834
4.741211	1.694676
4.741699	1.694584
4.742187	1.694441
4.742676	1.694460
4.743164	1.694615
4.743652	1.694527
4.744141	1.694339
4.744629	1.694271
4.745117	1.694585
4.745605	1.694450
4.746094	1.694345
4.746582	1.694362
4.747070	1.694366
4.747559	1.694553
4.748047	1.694598
4.748535	1.694466
4.749023	1.694301
4.749512	1.694348
4.750000	1.694361
4.750488	1.694367
4.750977	1.694269
4.751465	1.694239
4.751953	1.694145
4.752441	1.694412
4.752930	1.694405
4.753418	1.694231
4.753906	1.694234
4.754395	1.694250
4.754883	1.694380
4.755371	1.694433
4.755859	1.694209
4.756348	1.694129
4.756836	1.694227
4.757324	1.694428
4.757812	1.694354
4.758301	1.694144
4.758789	1.694107
4.759277	1.694239
4.759766	1.694359
4.760254	1.694125
4.760742	1.694101
4.761230	1.694103
4.761719	1.694019
4.762207	1.694056
4.762695	1.693983
4.763184	1.693809
4.763672	1.693686
4.764160	1.693851
4.764648	1.694050
4.765137	1.693964
4.765625	1.693942
4.766113	1.693873
4.766602	1.693879
4.767090	1.693976
4.767578	1.694005
4.768066	1.693741
4.768555	1.693964
4.769043	1.693926
4.769531	1.693975
4.770020	1.694323
4.770508	1.694011
4.770996	1.693693
4.771484	1.694083
4.771973	1.694182
4.772461	1.694001
4.772949	1.693894
4.773437	1.693805
4.773926	1.693964
4.774414	1.693960
4.774902	1.693765
4.775391	1.693761
4.775879	1.693547
4.776367	1.694100
4.776855	1.693960
4.777344	1.693660
4.777832	1.693675
4.778320	1.693943
4.778809	1.694011
4.779297	1.694112
4.779785	1.693953
4.780273	1.694040
4.780762	1.694139
4.781250	1.694131
4.781738	1.694154
4.782227	1.694092
4.782715	1.694171
4.783203	1.694341
4.783691	1.694051
4.784180	1.694148
4.784668	1.694306
4.785156	1.694134
4.785645	1.693981
4.786133	1.694348
4.786621	1.694297
4.787109	1.694285
4.787598	1.694140
4.788086	1.694234
4.788574	1.694159
4.789062	1.694257
4.789551	1.694212
4.790039	1.693995
4.790527	1.694075
4.791016	1.694110
4.791504	1.694157
4.791992	1.694368
4.792480	1.694408
4.792969	1.694588
4.793457	1.694396
4.793945	1.694262
4.794434	1.694226
4.794922	1.694301
4.795410	1.694454
4.795898	1.694413
4.796387	1.694247
4.796875	1.694193
4.797363	1.694513
4.797852	1.694609
4.798340	1.694547
4.798828	1.694438
4.799316	1.694176
4.799805	1.694509
4.800293	1.694727
4.800781	1.694380
4.801270	1.694234
4.801758	1.694124
4.802246	1.694283
4.802734	1.694550
4.803223	1.694654
4.803711	1.694029
4.804199	1.694297
4.804687	1.694473
4.805176	1.694751
4.805664	1.694611
4.806152	1.694401
4.806641	1.694234
4.807129	1.694530
4.807617	1.694590
4.808105	1.694604
4.808594	1.694261
4.809082	1.694463
4.809570	1.694734
4.810059	1.694782
4.810547	1.694585
4.811035	1.694416
4.811523	1.694544
4.812012	1.694933
4.812500	1.694723
4.812988	1.694592
4.813477	1.694467
4.813965	1.694390
4.814453	1.694718
4.814941	1.694629
4.815430	1.694400
4.815918	1.694271
4.816406	1.694618
4.816895	1.694460
4.817383	1.694726
4.817871	1.694493
4.818359	1.694563
4.818848	1.694540
4.819336	1.694618
4.819824	1.694577
4.820312	1.694552
4.820801	1.694377
4.821289	1.694746
4.821777	1.694669
4.822266	1.694644
4.822754	1.694292
4.823242	1.694386
4.823730	1.694507
4.824219	1.694627
4.824707	1.694327
4.825195	1.694455
4.825684	1.694415
4.826172	1.694670
4.826660	1.694884
4.827148	1.694651
4.827637	1.694686
4.828125	1.694756
4.828613	1.694577
4.829102	1.694628
4.829590	1.694494
4.830078	1.694389
4.830566	1.694483
4.831055	1.694361
4.831543	1.694439
4.832031	1.694171
4.832520	1.694268
4.833008	1.694263
4.833496	1.694386
4.833984	1.694214
4.834473	1.694453
4.834961	1.694366
4.835449	1.694458
4.835937	1.694594
4.836426	1.694494
4.836914	1.694286
4.837402	1.694202
4.837891	1.694380
4.838379	1.694544
4.838867	1.694453
4.839355	1.694278
4.839844	1.694311
4.840332	1.694490
4.840820	1.694620
4.841309	1.694389
4.841797	1.694321
4.842285	1.694320
4.842773	1.694340
4.843262	1.694355
4.843750	1.694085
4.844238	1.694177
4.844727	1.694139
4.845215	1.694370
4.845703	1.694129
4.846191	1.694113
4.846680	1.693933
4.847168	1.694226
4.847656	1.694034
4.848145	1.694348
4.848633	1.694272
4.849121	1.694024
4.849609	1.693981
4.850098	1.694224
4.850586	1.694236
4.851074	1.694527
4.851562	1.694294
4.852051	1.693879
4.852539	1.694259
4.853027	1.694435
4.853516	1.694218
4.854004	1.694102
4.854492	1.694130
4.854980	1.694373
4.855469	1.694214
4.855957	1.694046
4.856445	1.694026
4.856934	1.693867
4.857422	1.694015
4.857910	1.694128
4.858398	1.694247
4.858887	1.694098
4.859375	1.694236
4.859863	1.694278
4.860352	1.694284
4.860840	1.694262
4.861328	1.694231
4.861816	1.694242
4.862305	1.694161
4.862793	1.694485
4.863281	1.694290
4.863770	1.693979
4.864258	1.694208
4.864746	1.694411
4.865234	1.694265
4.865723	1.694464
4.866211	1.694209
4.866699	1.694184
4.867187	1.694364
4.867676	1.694262
4.868164	1.694151
4.868652	1.694075
4.869141	1.694142
4.869629	1.694327
4.870117	1.694112
4.870605	1.693927
4.871094	1.694260
4.871582	1.694237
4.872070	1.694005
4.872559	1.694029
4.873047	1.694120
4.873535	1.694059
4.874023	1.694326
4.874512	1.694249
4.875000	1.694236
4.875488	1.694194
4.875977	1.694267
4.876465	1.694073
4.876953	1.693965
4.877441	1.694309
4.877930	1.694159
4.878418	1.694044
4.878906	1.694105
4.879395	1.694373
4.879883	1.693978
4.880371	1.694314
4.880859	1.694176
4.881348	1.694121
4.881836	1.694144
4.882324	1.694089

